;PC Software:StarLab Version 3.30 Build 10
! ******* Warning: Do not modify this file. Changes may prevent   ********
! ******* the StarLab Log reader from opening the file correctly. ********
;Logged:22/03/2021 at 16:14:39
;File Version:5
;Time Resolution:1 microseconds
;Log Settings:Stop after:period: 00:03:00
;Graph Mode:Split
;Notes:                                                            

;Channel A:Vega Thermopile 3A (s/n:940606)  VG2.52 (s/n:946462)
;Channel B:Vega Thermopile 3A (s/n:947746)  VG2.52 (s/n:946463)

;Channel A:Details
;Name:3A
;Graph Type:Line
;Graph Color:RGB(14,104,168)
;Units:W
;Settings:Measuring:Power
;Settings:Wavelength:532
;Settings:Range:AUTO

;Channel B:Details
;Name:3A
;Graph Type:Line
;Graph Color:RGB(245,86,16)
;Units:W
;Settings:Measuring:Power
;Settings:Wavelength:532
;Settings:Range:AUTO

;Channel A:Statistics
;Min:82.80mW             
;Max:83.10mW             
;Average:82.94mW             
;Std.Dev.:62.14uW             
;Overrange:0                   

;Channel B:Statistics
;Min:14.40uW             
;Max:49.60uW             
;Average:20.53uW             
;Std.Dev.:7.938uW             
;Overrange:0                   
;--------------------


;First Pulse Arrived : 22/03/2021 at 16:14:39.735000
  Timestamp   	  Channel A  	  Channel B  	
         0.000	  8.290e-002 	             	
         0.065	  8.290e-002 	  1.700e-005 	
         0.129	  8.290e-002 	  1.670e-005 	
         0.193	  8.290e-002 	             	
         0.224	             	  1.640e-005 	
         0.256	  8.280e-002 	             	
         0.289	             	  1.620e-005 	
         0.321	  8.280e-002 	             	
         0.352	             	  1.600e-005 	
         0.384	  8.280e-002 	             	
         0.416	             	  1.590e-005 	
         0.448	  8.280e-002 	             	
         0.480	             	  1.580e-005 	
         0.512	  8.280e-002 	             	
         0.544	             	  1.560e-005 	
         0.608	  8.280e-002 	  1.560e-005 	
         0.673	  8.290e-002 	  1.550e-005 	
         0.737	  8.290e-002 	  1.550e-005 	
         0.801	  8.290e-002 	  1.550e-005 	
         0.865	  8.290e-002 	  1.550e-005 	
         0.929	  8.290e-002 	  1.550e-005 	
         0.993	  8.290e-002 	             	
         1.024	             	  1.550e-005 	
         1.056	  8.300e-002 	             	
         1.088	             	  1.540e-005 	
         1.120	  8.300e-002 	             	
         1.153	             	  1.540e-005 	
         1.185	  8.300e-002 	             	
         1.216	             	  1.540e-005 	
         1.248	  8.300e-002 	             	
         1.280	             	  1.540e-005 	
         1.312	  8.300e-002 	             	
         1.344	             	  1.540e-005 	
         1.409	  8.300e-002 	  1.540e-005 	
         1.472	  8.300e-002 	  1.540e-005 	
         1.537	  8.300e-002 	  1.550e-005 	
         1.600	             	  1.550e-005 	
         1.601	  8.300e-002 	             	
         1.664	  8.300e-002 	  1.560e-005 	
         1.728	  8.300e-002 	  1.560e-005 	
         1.792	  8.300e-002 	             	
         1.825	             	  1.570e-005 	
         1.857	  8.300e-002 	             	
         1.888	             	  1.580e-005 	
         1.921	  8.300e-002 	             	
         1.952	             	  1.580e-005 	
         1.984	  8.300e-002 	             	
         2.016	             	  1.580e-005 	
         2.048	  8.300e-002 	             	
         2.081	             	  1.580e-005 	
         2.112	  8.300e-002 	             	
         2.144	             	  1.570e-005 	
         2.209	  8.300e-002 	  1.570e-005 	
         2.272	  8.300e-002 	  1.570e-005 	
         2.336	  8.300e-002 	  1.560e-005 	
         2.400	  8.300e-002 	  1.560e-005 	
         2.464	  8.300e-002 	  1.550e-005 	
         2.529	  8.300e-002 	  1.550e-005 	
         2.593	  8.300e-002 	             	
         2.625	             	  1.550e-005 	
         2.657	  8.300e-002 	             	
         2.688	             	  1.550e-005 	
         2.721	  8.300e-002 	             	
         2.752	             	  1.550e-005 	
         2.784	  8.300e-002 	             	
         2.816	             	  1.550e-005 	
         2.848	  8.300e-002 	             	
         2.881	             	  1.550e-005 	
         2.912	  8.300e-002 	             	
         2.944	             	  1.560e-005 	
         3.009	  8.300e-002 	  1.560e-005 	
         3.073	  8.300e-002 	  1.570e-005 	
         3.137	  8.300e-002 	  1.580e-005 	
         3.200	  8.300e-002 	  1.580e-005 	
         3.264	  8.290e-002 	  1.580e-005 	
         3.328	  8.290e-002 	  1.570e-005 	
         3.393	  8.290e-002 	             	
         3.424	             	  1.560e-005 	
         3.456	  8.290e-002 	             	
         3.488	             	  1.550e-005 	
         3.520	  8.290e-002 	             	
         3.553	             	  1.540e-005 	
         3.584	  8.290e-002 	             	
         3.617	             	  1.520e-005 	
         3.648	  8.290e-002 	             	
         3.680	             	  1.500e-005 	
         3.712	  8.290e-002 	             	
         3.744	             	  1.490e-005 	
         3.809	  8.290e-002 	  1.470e-005 	
         3.873	  8.290e-002 	  1.460e-005 	
         3.937	  8.290e-002 	  1.450e-005 	
         4.000	  8.290e-002 	  1.450e-005 	
         4.064	  8.290e-002 	  1.440e-005 	
         4.128	  8.290e-002 	  1.440e-005 	
         4.193	  8.300e-002 	             	
         4.224	             	  1.440e-005 	
         4.257	  8.300e-002 	             	
         4.288	             	  1.440e-005 	
         4.320	  8.300e-002 	             	
         4.353	             	  1.440e-005 	
         4.384	  8.300e-002 	             	
         4.416	             	  1.450e-005 	
         4.448	  8.300e-002 	             	
         4.480	             	  1.450e-005 	
         4.513	  8.300e-002 	             	
         4.544	             	  1.440e-005 	
         4.608	  8.300e-002 	  1.440e-005 	
         4.673	  8.300e-002 	  1.450e-005 	
         4.736	  8.300e-002 	  1.460e-005 	
         4.801	  8.300e-002 	  1.460e-005 	
         4.864	  8.300e-002 	  1.470e-005 	
         4.928	  8.290e-002 	  1.470e-005 	
         4.993	  8.290e-002 	             	
         5.025	             	  1.480e-005 	
         5.057	  8.290e-002 	             	
         5.088	             	  1.480e-005 	
         5.120	  8.290e-002 	             	
         5.152	             	  1.490e-005 	
         5.184	  8.290e-002 	             	
         5.216	             	  1.490e-005 	
         5.248	  8.290e-002 	             	
         5.280	             	  1.490e-005 	
         5.313	  8.290e-002 	             	
         5.344	             	  1.500e-005 	
         5.409	  8.290e-002 	  1.500e-005 	
         5.473	  8.290e-002 	  1.500e-005 	
         5.537	  8.290e-002 	  1.500e-005 	
         5.600	  8.290e-002 	  1.520e-005 	
         5.664	  8.290e-002 	  1.530e-005 	
         5.728	  8.280e-002 	  1.540e-005 	
         5.792	  8.280e-002 	             	
         5.824	             	  1.540e-005 	
         5.856	  8.280e-002 	             	
         5.889	             	  1.550e-005 	
         5.921	  8.280e-002 	             	
         5.953	             	  1.560e-005 	
         5.985	  8.280e-002 	             	
         6.017	             	  1.560e-005 	
         6.049	  8.280e-002 	             	
         6.080	             	  1.570e-005 	
         6.113	  8.280e-002 	             	
         6.145	             	  1.570e-005 	
         6.209	  8.280e-002 	  1.580e-005 	
         6.272	  8.280e-002 	  1.580e-005 	
         6.336	  8.280e-002 	  1.580e-005 	
         6.401	  8.280e-002 	  1.570e-005 	
         6.464	  8.280e-002 	  1.570e-005 	
         6.528	  8.280e-002 	  1.560e-005 	
         6.592	  8.280e-002 	             	
         6.625	             	  1.570e-005 	
         6.656	  8.280e-002 	             	
         6.688	             	  1.570e-005 	
         6.720	  8.280e-002 	             	
         6.753	             	  1.570e-005 	
         6.784	  8.280e-002 	             	
         6.816	             	  1.570e-005 	
         6.849	  8.280e-002 	             	
         6.881	             	  1.570e-005 	
         6.912	  8.280e-002 	             	
         6.944	             	  1.580e-005 	
         7.009	  8.280e-002 	  1.580e-005 	
         7.073	  8.280e-002 	  1.580e-005 	
         7.136	  8.290e-002 	  1.580e-005 	
         7.200	  8.290e-002 	  1.580e-005 	
         7.264	  8.290e-002 	  1.580e-005 	
         7.329	  8.290e-002 	  1.590e-005 	
         7.392	  8.290e-002 	             	
         7.425	             	  1.580e-005 	
         7.456	  8.290e-002 	             	
         7.488	             	  1.580e-005 	
         7.520	  8.290e-002 	             	
         7.553	             	  1.570e-005 	
         7.585	  8.290e-002 	             	
         7.616	             	  1.570e-005 	
         7.648	  8.290e-002 	             	
         7.680	             	  1.570e-005 	
         7.713	  8.290e-002 	             	
         7.744	             	  1.570e-005 	
         7.808	  8.290e-002 	  1.560e-005 	
         7.872	  8.290e-002 	  1.550e-005 	
         7.936	  8.290e-002 	  1.550e-005 	
         8.000	  8.290e-002 	  1.550e-005 	
         8.064	  8.290e-002 	  1.540e-005 	
         8.128	  8.290e-002 	  1.540e-005 	
         8.192	  8.290e-002 	             	
         8.224	             	  1.540e-005 	
         8.256	  8.290e-002 	             	
         8.288	             	  1.540e-005 	
         8.320	  8.290e-002 	             	
         8.352	             	  1.540e-005 	
         8.384	  8.300e-002 	             	
         8.416	             	  1.530e-005 	
         8.448	  8.300e-002 	             	
         8.480	             	  1.530e-005 	
         8.512	  8.300e-002 	             	
         8.544	             	  1.520e-005 	
         8.576	  8.300e-002 	             	
         8.608	             	  1.520e-005 	
         8.672	  8.300e-002 	  1.520e-005 	
         8.736	  8.300e-002 	  1.510e-005 	
         8.800	  8.300e-002 	  1.510e-005 	
         8.864	  8.300e-002 	  1.510e-005 	
         8.928	  8.300e-002 	  1.510e-005 	
         8.992	  8.300e-002 	             	
         9.024	             	  1.510e-005 	
         9.057	  8.300e-002 	             	
         9.088	             	  1.510e-005 	
         9.120	  8.300e-002 	             	
         9.153	             	  1.510e-005 	
         9.184	  8.300e-002 	             	
         9.217	             	  1.510e-005 	
         9.249	  8.300e-002 	             	
         9.280	             	  1.510e-005 	
         9.312	  8.300e-002 	             	
         9.345	             	  1.520e-005 	
         9.377	  8.300e-002 	             	
         9.409	             	  1.520e-005 	
         9.473	  8.300e-002 	  1.530e-005 	
         9.537	  8.300e-002 	  1.530e-005 	
         9.601	  8.300e-002 	  1.540e-005 	
         9.665	  8.300e-002 	  1.540e-005 	
         9.728	  8.300e-002 	  1.540e-005 	
         9.793	  8.300e-002 	             	
         9.825	             	  1.550e-005 	
         9.857	  8.300e-002 	             	
         9.889	             	  1.550e-005 	
         9.921	  8.300e-002 	             	
         9.953	             	  1.550e-005 	
         9.984	  8.300e-002 	             	
        10.016	             	  1.550e-005 	
        10.048	  8.300e-002 	             	
        10.081	             	  1.550e-005 	
        10.112	  8.300e-002 	             	
        10.144	             	  1.550e-005 	
        10.176	  8.300e-002 	             	
        10.208	             	  1.550e-005 	
        10.273	  8.300e-002 	  1.550e-005 	
        10.336	  8.300e-002 	  1.540e-005 	
        10.401	  8.310e-002 	  1.540e-005 	
        10.465	  8.310e-002 	  1.530e-005 	
        10.528	  8.300e-002 	  1.530e-005 	
        10.593	  8.300e-002 	             	
        10.624	             	  1.530e-005 	
        10.656	  8.300e-002 	             	
        10.688	             	  1.530e-005 	
        10.720	  8.300e-002 	             	
        10.752	             	  1.530e-005 	
        10.784	  8.300e-002 	             	
        10.816	             	  1.530e-005 	
        10.848	  8.300e-002 	             	
        10.880	             	  1.530e-005 	
        10.912	  8.300e-002 	             	
        10.945	             	  1.530e-005 	
        10.977	  8.300e-002 	             	
        11.008	             	  1.530e-005 	
        11.072	  8.300e-002 	  1.540e-005 	
        11.137	  8.300e-002 	  1.540e-005 	
        11.201	  8.300e-002 	  1.550e-005 	
        11.264	  8.290e-002 	  1.560e-005 	
        11.328	  8.290e-002 	  1.570e-005 	
        11.393	  8.290e-002 	             	
        11.424	             	  1.570e-005 	
        11.456	  8.290e-002 	             	
        11.489	             	  1.580e-005 	
        11.521	  8.290e-002 	             	
        11.552	             	  1.580e-005 	
        11.584	  8.290e-002 	             	
        11.616	             	  1.580e-005 	
        11.648	  8.290e-002 	             	
        11.681	             	  1.580e-005 	
        11.712	  8.290e-002 	             	
        11.745	             	  1.570e-005 	
        11.777	  8.290e-002 	             	
        11.809	             	  1.570e-005 	
        11.872	  8.290e-002 	  1.570e-005 	
        11.936	  8.290e-002 	  1.570e-005 	
        12.000	  8.290e-002 	  1.560e-005 	
        12.065	  8.290e-002 	  1.560e-005 	
        12.128	  8.290e-002 	  1.560e-005 	
        12.192	  8.290e-002 	  1.550e-005 	
        12.257	  8.290e-002 	             	
        12.289	             	  1.540e-005 	
        12.320	  8.290e-002 	             	
        12.353	             	  1.540e-005 	
        12.385	  8.290e-002 	             	
        12.416	             	  1.530e-005 	
        12.449	  8.290e-002 	             	
        12.480	             	  1.530e-005 	
        12.513	  8.290e-002 	             	
        12.544	             	  1.530e-005 	
        12.577	  8.290e-002 	             	
        12.608	             	  1.540e-005 	
        12.672	  8.290e-002 	  1.550e-005 	
        12.736	  8.290e-002 	  1.560e-005 	
        12.800	  8.290e-002 	  1.570e-005 	
        12.864	  8.290e-002 	  1.570e-005 	
        12.928	  8.290e-002 	  1.580e-005 	
        12.993	  8.290e-002 	  1.580e-005 	
        13.056	  8.290e-002 	             	
        13.088	             	  1.590e-005 	
        13.121	  8.290e-002 	             	
        13.153	             	  1.600e-005 	
        13.184	  8.290e-002 	             	
        13.217	             	  1.600e-005 	
        13.249	  8.290e-002 	             	
        13.281	             	  1.600e-005 	
        13.312	  8.290e-002 	             	
        13.345	             	  1.600e-005 	
        13.376	  8.290e-002 	             	
        13.409	             	  1.600e-005 	
        13.473	  8.290e-002 	  1.600e-005 	
        13.537	  8.290e-002 	  1.600e-005 	
        13.601	  8.290e-002 	  1.600e-005 	
        13.664	  8.300e-002 	  1.600e-005 	
        13.728	  8.300e-002 	  1.590e-005 	
        13.792	  8.300e-002 	  1.590e-005 	
        13.857	  8.300e-002 	             	
        13.889	             	  1.590e-005 	
        13.921	  8.300e-002 	             	
        13.952	             	  1.580e-005 	
        13.985	  8.300e-002 	             	
        14.016	             	  1.580e-005 	
        14.048	  8.300e-002 	             	
        14.081	             	  1.590e-005 	
        14.112	  8.300e-002 	             	
        14.144	             	  1.590e-005 	
        14.176	  8.300e-002 	             	
        14.209	             	  1.600e-005 	
        14.272	  8.300e-002 	  1.600e-005 	
        14.336	  8.300e-002 	  1.610e-005 	
        14.401	  8.300e-002 	  1.620e-005 	
        14.464	  8.300e-002 	  1.620e-005 	
        14.528	  8.300e-002 	  1.620e-005 	
        14.593	  8.300e-002 	  1.630e-005 	
        14.656	  8.290e-002 	             	
        14.688	             	  1.640e-005 	
        14.720	  8.290e-002 	             	
        14.752	             	  1.650e-005 	
        14.785	  8.290e-002 	             	
        14.817	             	  1.660e-005 	
        14.848	  8.290e-002 	             	
        14.880	             	  1.660e-005 	
        14.913	  8.290e-002 	             	
        14.944	             	  1.670e-005 	
        14.977	  8.290e-002 	             	
        15.008	             	  1.670e-005 	
        15.073	  8.290e-002 	  1.680e-005 	
        15.136	  8.290e-002 	  1.690e-005 	
        15.201	  8.290e-002 	  1.690e-005 	
        15.265	  8.290e-002 	  1.690e-005 	
        15.329	  8.290e-002 	  1.700e-005 	
        15.392	  8.290e-002 	  1.700e-005 	
        15.456	  8.290e-002 	             	
        15.489	             	  1.700e-005 	
        15.520	  8.290e-002 	             	
        15.553	             	  1.690e-005 	
        15.584	  8.290e-002 	             	
        15.616	             	  1.690e-005 	
        15.649	  8.290e-002 	             	
        15.680	             	  1.690e-005 	
        15.712	  8.300e-002 	             	
        15.745	             	  1.690e-005 	
        15.776	  8.300e-002 	             	
        15.808	             	  1.690e-005 	
        15.872	  8.300e-002 	  1.700e-005 	
        15.937	  8.300e-002 	  1.700e-005 	
        16.001	  8.300e-002 	  1.700e-005 	
        16.065	  8.300e-002 	  1.690e-005 	
        16.129	  8.300e-002 	  1.690e-005 	
        16.192	  8.300e-002 	  1.680e-005 	
        16.257	  8.300e-002 	             	
        16.288	             	  1.670e-005 	
        16.321	  8.300e-002 	             	
        16.352	             	  1.670e-005 	
        16.384	  8.300e-002 	             	
        16.417	             	  1.670e-005 	
        16.449	  8.300e-002 	             	
        16.481	             	  1.670e-005 	
        16.512	  8.300e-002 	             	
        16.544	             	  1.680e-005 	
        16.576	  8.300e-002 	             	
        16.608	             	  1.700e-005 	
        16.672	  8.300e-002 	             	
        16.673	             	  1.710e-005 	
        16.737	  8.300e-002 	  1.720e-005 	
        16.801	  8.300e-002 	  1.730e-005 	
        16.864	  8.300e-002 	  1.740e-005 	
        16.929	  8.300e-002 	  1.750e-005 	
        16.992	  8.300e-002 	  1.760e-005 	
        17.056	  8.300e-002 	             	
        17.089	             	  1.770e-005 	
        17.120	  8.300e-002 	             	
        17.152	             	  1.770e-005 	
        17.184	  8.300e-002 	             	
        17.216	             	  1.770e-005 	
        17.248	  8.300e-002 	             	
        17.280	             	  1.770e-005 	
        17.313	  8.300e-002 	             	
        17.344	             	  1.770e-005 	
        17.376	  8.300e-002 	             	
        17.409	             	  1.770e-005 	
        17.472	  8.300e-002 	  1.770e-005 	
        17.537	  8.300e-002 	  1.760e-005 	
        17.600	  8.300e-002 	  1.760e-005 	
        17.665	  8.300e-002 	  1.760e-005 	
        17.728	  8.300e-002 	  1.760e-005 	
        17.793	  8.300e-002 	  1.770e-005 	
        17.857	  8.300e-002 	             	
        17.888	             	  1.770e-005 	
        17.920	  8.300e-002 	             	
        17.952	             	  1.780e-005 	
        17.985	  8.300e-002 	             	
        18.016	             	  1.780e-005 	
        18.049	  8.300e-002 	             	
        18.081	             	  1.790e-005 	
        18.112	  8.300e-002 	             	
        18.144	             	  1.800e-005 	
        18.176	  8.300e-002 	             	
        18.209	             	  1.810e-005 	
        18.273	  8.300e-002 	  1.820e-005 	
        18.336	  8.300e-002 	  1.830e-005 	
        18.400	  8.300e-002 	  1.830e-005 	
        18.465	  8.300e-002 	  1.840e-005 	
        18.529	  8.300e-002 	  1.840e-005 	
        18.592	  8.300e-002 	  1.840e-005 	
        18.657	  8.300e-002 	             	
        18.689	             	  1.840e-005 	
        18.721	  8.290e-002 	             	
        18.753	             	  1.850e-005 	
        18.784	  8.290e-002 	             	
        18.816	             	  1.850e-005 	
        18.848	  8.290e-002 	             	
        18.880	             	  1.850e-005 	
        18.913	  8.290e-002 	             	
        18.944	             	  1.850e-005 	
        18.976	  8.290e-002 	             	
        19.009	             	  1.850e-005 	
        19.073	  8.290e-002 	  1.850e-005 	
        19.137	  8.290e-002 	  1.850e-005 	
        19.200	  8.290e-002 	  1.860e-005 	
        19.265	  8.290e-002 	  1.870e-005 	
        19.329	  8.290e-002 	  1.870e-005 	
        19.392	  8.290e-002 	  1.870e-005 	
        19.456	  8.290e-002 	             	
        19.488	             	  1.880e-005 	
        19.520	  8.290e-002 	             	
        19.553	             	  1.890e-005 	
        19.584	  8.290e-002 	             	
        19.617	             	  1.900e-005 	
        19.649	  8.290e-002 	             	
        19.680	             	  1.910e-005 	
        19.713	  8.290e-002 	             	
        19.744	             	  1.910e-005 	
        19.777	  8.290e-002 	             	
        19.809	             	  1.920e-005 	
        19.872	  8.290e-002 	  1.920e-005 	
        19.937	  8.290e-002 	  1.920e-005 	
        20.001	  8.290e-002 	  1.930e-005 	
        20.064	  8.290e-002 	  1.930e-005 	
        20.128	  8.290e-002 	  1.940e-005 	
        20.192	  8.290e-002 	  1.940e-005 	
        20.256	  8.290e-002 	             	
        20.288	             	  1.940e-005 	
        20.321	  8.290e-002 	             	
        20.352	             	  1.950e-005 	
        20.385	  8.290e-002 	             	
        20.417	             	  1.960e-005 	
        20.448	  8.290e-002 	             	
        20.481	             	  1.960e-005 	
        20.512	  8.290e-002 	             	
        20.544	             	  1.970e-005 	
        20.577	  8.290e-002 	             	
        20.608	             	  1.970e-005 	
        20.673	  8.290e-002 	  1.980e-005 	
        20.737	  8.290e-002 	  1.980e-005 	
        20.800	  8.290e-002 	  1.980e-005 	
        20.864	  8.290e-002 	  1.990e-005 	
        20.929	  8.300e-002 	  1.990e-005 	
        20.993	  8.300e-002 	  1.990e-005 	
        21.056	  8.300e-002 	             	
        21.089	             	  2.000e-005 	
        21.120	  8.300e-002 	             	
        21.152	             	  2.000e-005 	
        21.185	  8.300e-002 	             	
        21.216	             	  2.010e-005 	
        21.249	  8.300e-002 	             	
        21.281	             	  2.020e-005 	
        21.313	  8.300e-002 	             	
        21.345	             	  2.040e-005 	
        21.376	  8.300e-002 	             	
        21.409	             	  2.050e-005 	
        21.441	  8.300e-002 	             	
        21.472	             	  2.070e-005 	
        21.536	  8.300e-002 	  2.080e-005 	
        21.600	  8.300e-002 	  2.090e-005 	
        21.665	  8.300e-002 	  2.100e-005 	
        21.728	  8.300e-002 	  2.110e-005 	
        21.792	  8.300e-002 	  2.120e-005 	
        21.857	  8.300e-002 	             	
        21.888	             	  2.140e-005 	
        21.920	  8.300e-002 	             	
        21.952	             	  2.150e-005 	
        21.985	  8.300e-002 	             	
        22.016	             	  2.170e-005 	
        22.049	  8.300e-002 	             	
        22.081	             	  2.190e-005 	
        22.112	  8.300e-002 	             	
        22.145	             	  2.220e-005 	
        22.177	  8.300e-002 	             	
        22.208	             	  2.240e-005 	
        22.241	  8.300e-002 	             	
        22.272	             	  2.260e-005 	
        22.337	  8.300e-002 	  2.280e-005 	
        22.401	  8.300e-002 	  2.300e-005 	
        22.465	  8.290e-002 	  2.320e-005 	
        22.528	  8.290e-002 	  2.340e-005 	
        22.592	  8.290e-002 	  2.370e-005 	
        22.656	  8.290e-002 	             	
        22.689	             	  2.390e-005 	
        22.721	  8.290e-002 	             	
        22.753	             	  2.420e-005 	
        22.785	  8.290e-002 	             	
        22.816	             	  2.450e-005 	
        22.848	  8.290e-002 	             	
        22.880	             	  2.480e-005 	
        22.913	  8.290e-002 	             	
        22.944	             	  2.510e-005 	
        22.977	  8.290e-002 	             	
        23.009	             	  2.530e-005 	
        23.073	  8.300e-002 	  2.550e-005 	
        23.136	  8.300e-002 	  2.580e-005 	
        23.200	  8.300e-002 	  2.610e-005 	
        23.264	  8.300e-002 	  2.630e-005 	
        23.328	  8.300e-002 	  2.660e-005 	
        23.392	  8.300e-002 	  2.690e-005 	
        23.456	  8.300e-002 	             	
        23.489	             	  2.730e-005 	
        23.520	  8.300e-002 	             	
        23.553	             	  2.770e-005 	
        23.585	  8.300e-002 	             	
        23.616	             	  2.810e-005 	
        23.648	  8.300e-002 	             	
        23.681	             	  2.860e-005 	
        23.713	  8.300e-002 	             	
        23.745	             	  2.910e-005 	
        23.777	  8.300e-002 	             	
        23.808	             	  2.960e-005 	
        23.840	  8.300e-002 	             	
        23.873	             	  3.020e-005 	
        23.936	  8.300e-002 	  3.080e-005 	
        24.001	  8.300e-002 	  3.140e-005 	
        24.064	  8.300e-002 	  3.200e-005 	
        24.128	  8.300e-002 	  3.270e-005 	
        24.193	  8.300e-002 	  3.330e-005 	
        24.257	  8.300e-002 	             	
        24.289	             	  3.400e-005 	
        24.321	  8.300e-002 	             	
        24.352	             	  3.460e-005 	
        24.385	  8.300e-002 	             	
        24.416	             	  3.540e-005 	
        24.449	  8.300e-002 	             	
        24.480	             	  3.620e-005 	
        24.512	  8.300e-002 	             	
        24.544	             	  3.710e-005 	
        24.577	  8.300e-002 	             	
        24.608	             	  3.790e-005 	
        24.640	  8.300e-002 	             	
        24.673	             	  3.890e-005 	
        24.736	  8.300e-002 	  3.980e-005 	
        24.801	  8.290e-002 	  4.080e-005 	
        24.865	  8.290e-002 	  4.180e-005 	
        24.928	  8.290e-002 	  4.280e-005 	
        24.993	  8.290e-002 	  4.370e-005 	
        25.057	  8.290e-002 	  4.460e-005 	
        25.121	  8.290e-002 	             	
        25.152	             	  4.550e-005 	
        25.185	  8.290e-002 	             	
        25.217	             	  4.640e-005 	
        25.248	  8.290e-002 	             	
        25.280	             	  4.710e-005 	
        25.312	  8.290e-002 	             	
        25.344	             	  4.770e-005 	
        25.377	  8.290e-002 	             	
        25.409	             	  4.830e-005 	
        25.440	  8.290e-002 	             	
        25.473	             	  4.880e-005 	
        25.536	  8.290e-002 	  4.910e-005 	
        25.600	  8.290e-002 	  4.940e-005 	
        25.665	  8.290e-002 	  4.950e-005 	
        25.728	  8.290e-002 	  4.960e-005 	
        25.792	  8.290e-002 	  4.950e-005 	
        25.856	  8.290e-002 	  4.940e-005 	
        25.921	  8.290e-002 	             	
        25.953	             	  4.920e-005 	
        25.985	  8.290e-002 	             	
        26.017	             	  4.890e-005 	
        26.049	  8.290e-002 	             	
        26.081	             	  4.850e-005 	
        26.112	  8.290e-002 	             	
        26.145	             	  4.810e-005 	
        26.177	  8.290e-002 	             	
        26.208	             	  4.770e-005 	
        26.241	  8.290e-002 	             	
        26.273	             	  4.730e-005 	
        26.337	  8.290e-002 	  4.680e-005 	
        26.401	  8.290e-002 	  4.630e-005 	
        26.464	  8.290e-002 	  4.580e-005 	
        26.528	  8.290e-002 	  4.520e-005 	
        26.593	  8.290e-002 	  4.460e-005 	
        26.656	  8.290e-002 	  4.390e-005 	
        26.720	  8.290e-002 	             	
        26.753	             	  4.330e-005 	
        26.784	  8.290e-002 	             	
        26.817	             	  4.270e-005 	
        26.848	  8.290e-002 	             	
        26.881	             	  4.210e-005 	
        26.913	  8.290e-002 	             	
        26.945	             	  4.150e-005 	
        26.977	  8.290e-002 	             	
        27.008	             	  4.100e-005 	
        27.040	  8.290e-002 	             	
        27.072	             	  4.040e-005 	
        27.136	  8.290e-002 	  3.990e-005 	
        27.200	  8.290e-002 	  3.930e-005 	
        27.265	  8.290e-002 	  3.880e-005 	
        27.328	  8.290e-002 	  3.820e-005 	
        27.393	  8.290e-002 	  3.770e-005 	
        27.457	  8.290e-002 	  3.720e-005 	
        27.521	  8.290e-002 	             	
        27.552	             	  3.660e-005 	
        27.584	  8.290e-002 	             	
        27.617	             	  3.600e-005 	
        27.648	  8.290e-002 	             	
        27.680	             	  3.550e-005 	
        27.713	  8.290e-002 	             	
        27.745	             	  3.480e-005 	
        27.776	  8.290e-002 	             	
        27.808	             	  3.430e-005 	
        27.840	  8.290e-002 	             	
        27.873	             	  3.380e-005 	
        27.937	  8.290e-002 	  3.340e-005 	
        28.000	  8.290e-002 	  3.290e-005 	
        28.064	  8.290e-002 	  3.250e-005 	
        28.128	  8.290e-002 	  3.210e-005 	
        28.192	  8.290e-002 	  3.170e-005 	
        28.256	  8.290e-002 	  3.130e-005 	
        28.320	  8.290e-002 	             	
        28.353	             	  3.100e-005 	
        28.385	  8.300e-002 	             	
        28.417	             	  3.070e-005 	
        28.448	  8.300e-002 	             	
        28.480	             	  3.030e-005 	
        28.512	  8.300e-002 	             	
        28.544	             	  3.000e-005 	
        28.577	  8.300e-002 	             	
        28.608	             	  2.970e-005 	
        28.640	  8.300e-002 	             	
        28.672	             	  2.930e-005 	
        28.737	  8.300e-002 	  2.880e-005 	
        28.800	  8.300e-002 	  2.850e-005 	
        28.865	  8.300e-002 	  2.810e-005 	
        28.929	  8.300e-002 	  2.780e-005 	
        28.993	  8.300e-002 	  2.750e-005 	
        29.057	  8.300e-002 	  2.730e-005 	
        29.121	  8.300e-002 	             	
        29.152	             	  2.710e-005 	
        29.184	  8.300e-002 	             	
        29.217	             	  2.690e-005 	
        29.248	  8.300e-002 	             	
        29.280	             	  2.680e-005 	
        29.312	  8.300e-002 	             	
        29.344	             	  2.660e-005 	
        29.376	  8.300e-002 	             	
        29.408	             	  2.640e-005 	
        29.440	  8.300e-002 	             	
        29.472	             	  2.620e-005 	
        29.537	  8.300e-002 	  2.600e-005 	
        29.601	  8.300e-002 	  2.580e-005 	
        29.664	  8.300e-002 	  2.560e-005 	
        29.728	  8.300e-002 	  2.540e-005 	
        29.792	  8.300e-002 	  2.530e-005 	
        29.856	  8.300e-002 	  2.510e-005 	
        29.920	  8.300e-002 	             	
        29.952	             	  2.500e-005 	
        29.985	  8.290e-002 	             	
        30.017	             	  2.480e-005 	
        30.048	  8.290e-002 	             	
        30.081	             	  2.460e-005 	
        30.112	  8.290e-002 	             	
        30.144	             	  2.450e-005 	
        30.176	  8.300e-002 	             	
        30.209	             	  2.430e-005 	
        30.240	  8.300e-002 	             	
        30.273	             	  2.420e-005 	
        30.336	  8.300e-002 	  2.410e-005 	
        30.400	  8.300e-002 	  2.390e-005 	
        30.464	  8.300e-002 	  2.380e-005 	
        30.528	  8.300e-002 	  2.360e-005 	
        30.592	  8.300e-002 	  2.340e-005 	
        30.657	  8.300e-002 	  2.320e-005 	
        30.720	  8.300e-002 	             	
        30.752	             	  2.310e-005 	
        30.784	  8.300e-002 	             	
        30.816	             	  2.300e-005 	
        30.849	  8.300e-002 	             	
        30.881	             	  2.290e-005 	
        30.912	  8.300e-002 	             	
        30.944	             	  2.280e-005 	
        30.976	  8.300e-002 	             	
        31.008	             	  2.270e-005 	
        31.041	  8.300e-002 	             	
        31.072	             	  2.260e-005 	
        31.137	  8.300e-002 	  2.250e-005 	
        31.200	  8.300e-002 	  2.240e-005 	
        31.264	  8.300e-002 	  2.240e-005 	
        31.329	  8.300e-002 	  2.230e-005 	
        31.392	  8.300e-002 	  2.220e-005 	
        31.456	  8.300e-002 	  2.220e-005 	
        31.520	  8.300e-002 	             	
        31.552	             	  2.220e-005 	
        31.584	  8.300e-002 	             	
        31.617	             	  2.220e-005 	
        31.649	  8.300e-002 	             	
        31.680	             	  2.210e-005 	
        31.712	  8.300e-002 	             	
        31.744	             	  2.210e-005 	
        31.776	  8.300e-002 	             	
        31.808	             	  2.210e-005 	
        31.841	  8.300e-002 	             	
        31.872	             	  2.210e-005 	
        31.936	  8.300e-002 	  2.200e-005 	
        32.000	  8.300e-002 	  2.200e-005 	
        32.064	  8.300e-002 	  2.200e-005 	
        32.129	  8.300e-002 	  2.200e-005 	
        32.192	  8.300e-002 	  2.200e-005 	
        32.257	  8.300e-002 	  2.200e-005 	
        32.320	  8.300e-002 	             	
        32.352	             	  2.190e-005 	
        32.385	  8.300e-002 	             	
        32.416	             	  2.190e-005 	
        32.448	  8.300e-002 	             	
        32.480	             	  2.180e-005 	
        32.512	  8.300e-002 	             	
        32.544	             	  2.170e-005 	
        32.577	  8.300e-002 	             	
        32.609	             	  2.160e-005 	
        32.640	  8.300e-002 	             	
        32.673	             	  2.160e-005 	
        32.737	  8.300e-002 	  2.150e-005 	
        32.801	  8.300e-002 	  2.140e-005 	
        32.864	  8.300e-002 	  2.140e-005 	
        32.928	  8.300e-002 	  2.130e-005 	
        32.993	  8.290e-002 	  2.130e-005 	
        33.056	  8.290e-002 	  2.120e-005 	
        33.120	  8.290e-002 	             	
        33.153	             	  2.100e-005 	
        33.185	  8.290e-002 	             	
        33.217	             	  2.080e-005 	
        33.248	  8.290e-002 	             	
        33.281	             	  2.070e-005 	
        33.312	  8.290e-002 	             	
        33.344	             	  2.060e-005 	
        33.377	  8.290e-002 	             	
        33.409	             	  2.050e-005 	
        33.441	  8.290e-002 	             	
        33.472	             	  2.040e-005 	
        33.537	  8.290e-002 	  2.040e-005 	
        33.600	  8.290e-002 	  2.030e-005 	
        33.664	  8.290e-002 	  2.030e-005 	
        33.728	  8.290e-002 	  2.020e-005 	
        33.792	  8.290e-002 	  2.020e-005 	
        33.857	  8.290e-002 	  2.010e-005 	
        33.921	  8.290e-002 	             	
        33.953	             	  2.010e-005 	
        33.984	  8.290e-002 	             	
        34.016	             	  2.020e-005 	
        34.049	  8.290e-002 	             	
        34.080	             	  2.030e-005 	
        34.113	  8.290e-002 	             	
        34.145	             	  2.030e-005 	
        34.176	  8.290e-002 	             	
        34.208	             	  2.030e-005 	
        34.241	  8.290e-002 	             	
        34.272	             	  2.030e-005 	
        34.337	  8.290e-002 	  2.030e-005 	
        34.401	  8.300e-002 	  2.030e-005 	
        34.464	  8.300e-002 	  2.020e-005 	
        34.528	  8.300e-002 	  2.020e-005 	
        34.593	  8.300e-002 	  2.010e-005 	
        34.656	  8.300e-002 	  2.000e-005 	
        34.720	  8.300e-002 	             	
        34.752	             	  2.000e-005 	
        34.785	  8.300e-002 	             	
        34.817	             	  1.990e-005 	
        34.848	  8.300e-002 	             	
        34.881	             	  1.990e-005 	
        34.912	  8.300e-002 	             	
        34.944	             	  1.980e-005 	
        34.976	  8.300e-002 	             	
        35.008	             	  1.970e-005 	
        35.040	  8.300e-002 	             	
        35.072	             	  1.970e-005 	
        35.105	  8.300e-002 	             	
        35.136	             	  1.970e-005 	
        35.200	  8.300e-002 	  1.960e-005 	
        35.265	  8.290e-002 	  1.950e-005 	
        35.328	  8.290e-002 	  1.940e-005 	
        35.393	  8.290e-002 	  1.930e-005 	
        35.457	  8.290e-002 	  1.920e-005 	
        35.520	  8.300e-002 	             	
        35.553	             	  1.920e-005 	
        35.584	  8.300e-002 	             	
        35.617	             	  1.910e-005 	
        35.649	  8.300e-002 	             	
        35.681	             	  1.900e-005 	
        35.712	  8.300e-002 	             	
        35.744	             	  1.900e-005 	
        35.777	  8.300e-002 	             	
        35.808	             	  1.890e-005 	
        35.841	  8.300e-002 	             	
        35.872	             	  1.890e-005 	
        35.904	  8.300e-002 	             	
        35.937	             	  1.890e-005 	
        36.000	  8.300e-002 	  1.880e-005 	
        36.064	  8.300e-002 	  1.880e-005 	
        36.129	  8.300e-002 	  1.880e-005 	
        36.193	  8.300e-002 	  1.880e-005 	
        36.256	  8.300e-002 	  1.870e-005 	
        36.320	  8.300e-002 	             	
        36.353	             	  1.870e-005 	
        36.385	  8.300e-002 	             	
        36.416	             	  1.860e-005 	
        36.448	  8.300e-002 	             	
        36.481	             	  1.840e-005 	
        36.512	  8.300e-002 	             	
        36.544	             	  1.820e-005 	
        36.576	  8.300e-002 	             	
        36.608	             	  1.790e-005 	
        36.640	  8.300e-002 	             	
        36.673	             	  1.760e-005 	
        36.704	  8.300e-002 	             	
        36.736	             	  1.730e-005 	
        36.801	  8.300e-002 	  1.690e-005 	
        36.864	  8.300e-002 	  1.660e-005 	
        36.929	  8.300e-002 	  1.630e-005 	
        36.993	  8.300e-002 	  1.600e-005 	
        37.057	  8.300e-002 	  1.570e-005 	
        37.120	  8.290e-002 	             	
        37.153	             	  1.550e-005 	
        37.185	  8.290e-002 	             	
        37.217	             	  1.530e-005 	
        37.248	  8.290e-002 	             	
        37.281	             	  1.520e-005 	
        37.313	  8.290e-002 	             	
        37.345	             	  1.510e-005 	
        37.376	  8.290e-002 	             	
        37.408	             	  1.510e-005 	
        37.441	  8.290e-002 	             	
        37.472	             	  1.520e-005 	
        37.504	  8.290e-002 	             	
        37.537	             	  1.530e-005 	
        37.600	  8.290e-002 	  1.540e-005 	
        37.665	  8.290e-002 	  1.560e-005 	
        37.729	  8.290e-002 	  1.580e-005 	
        37.793	  8.290e-002 	  1.590e-005 	
        37.856	  8.300e-002 	  1.600e-005 	
        37.920	  8.300e-002 	             	
        37.921	             	  1.620e-005 	
        37.984	  8.300e-002 	             	
        38.017	             	  1.630e-005 	
        38.049	  8.300e-002 	             	
        38.080	             	  1.650e-005 	
        38.112	  8.300e-002 	             	
        38.144	             	  1.670e-005 	
        38.177	  8.300e-002 	             	
        38.209	             	  1.690e-005 	
        38.241	  8.300e-002 	             	
        38.273	             	  1.710e-005 	
        38.304	  8.300e-002 	             	
        38.337	             	  1.730e-005 	
        38.401	  8.300e-002 	  1.750e-005 	
        38.465	  8.300e-002 	  1.760e-005 	
        38.528	  8.300e-002 	  1.770e-005 	
        38.593	  8.290e-002 	  1.780e-005 	
        38.656	  8.290e-002 	  1.780e-005 	
        38.720	  8.290e-002 	  1.790e-005 	
        38.784	  8.290e-002 	             	
        38.817	             	  1.790e-005 	
        38.848	  8.290e-002 	             	
        38.881	             	  1.780e-005 	
        38.913	  8.290e-002 	             	
        38.945	             	  1.770e-005 	
        38.977	  8.290e-002 	             	
        39.008	             	  1.770e-005 	
        39.040	  8.290e-002 	             	
        39.072	             	  1.770e-005 	
        39.104	  8.290e-002 	             	
        39.137	             	  1.760e-005 	
        39.200	  8.290e-002 	  1.760e-005 	
        39.264	  8.290e-002 	  1.760e-005 	
        39.328	  8.280e-002 	  1.760e-005 	
        39.393	  8.280e-002 	  1.770e-005 	
        39.456	  8.280e-002 	  1.770e-005 	
        39.520	  8.280e-002 	  1.780e-005 	
        39.584	  8.280e-002 	             	
        39.617	             	  1.780e-005 	
        39.649	  8.280e-002 	             	
        39.680	             	  1.780e-005 	
        39.713	  8.280e-002 	             	
        39.744	             	  1.780e-005 	
        39.776	  8.290e-002 	             	
        39.808	             	  1.780e-005 	
        39.841	  8.290e-002 	             	
        39.873	             	  1.770e-005 	
        39.904	  8.290e-002 	             	
        39.937	             	  1.770e-005 	
        40.000	  8.290e-002 	  1.750e-005 	
        40.064	  8.290e-002 	  1.740e-005 	
        40.129	  8.290e-002 	  1.730e-005 	
        40.192	  8.300e-002 	  1.720e-005 	
        40.257	  8.300e-002 	  1.710e-005 	
        40.320	  8.300e-002 	  1.690e-005 	
        40.384	  8.300e-002 	             	
        40.416	             	  1.680e-005 	
        40.449	  8.300e-002 	             	
        40.480	             	  1.670e-005 	
        40.513	  8.300e-002 	             	
        40.545	             	  1.670e-005 	
        40.576	  8.300e-002 	             	
        40.609	             	  1.670e-005 	
        40.641	  8.300e-002 	             	
        40.672	             	  1.660e-005 	
        40.705	  8.300e-002 	             	
        40.736	             	  1.650e-005 	
        40.800	  8.300e-002 	  1.640e-005 	
        40.864	  8.300e-002 	  1.620e-005 	
        40.929	  8.300e-002 	  1.610e-005 	
        40.993	  8.300e-002 	  1.590e-005 	
        41.056	  8.300e-002 	             	
        41.057	             	  1.570e-005 	
        41.121	  8.300e-002 	  1.560e-005 	
        41.184	  8.300e-002 	             	
        41.217	             	  1.550e-005 	
        41.249	  8.290e-002 	             	
        41.280	             	  1.540e-005 	
        41.313	  8.290e-002 	             	
        41.344	             	  1.530e-005 	
        41.376	  8.290e-002 	             	
        41.408	             	  1.520e-005 	
        41.441	  8.290e-002 	             	
        41.472	             	  1.510e-005 	
        41.504	  8.290e-002 	             	
        41.536	             	  1.510e-005 	
        41.601	  8.290e-002 	  1.510e-005 	
        41.665	  8.290e-002 	  1.510e-005 	
        41.729	  8.290e-002 	  1.520e-005 	
        41.793	  8.280e-002 	  1.520e-005 	
        41.857	  8.280e-002 	  1.520e-005 	
        41.920	  8.280e-002 	  1.520e-005 	
        41.984	  8.280e-002 	             	
        42.016	             	  1.520e-005 	
        42.048	  8.290e-002 	             	
        42.081	             	  1.520e-005 	
        42.112	  8.280e-002 	             	
        42.145	             	  1.530e-005 	
        42.177	  8.280e-002 	             	
        42.209	             	  1.530e-005 	
        42.240	  8.280e-002 	             	
        42.272	             	  1.530e-005 	
        42.305	  8.280e-002 	             	
        42.336	             	  1.520e-005 	
        42.400	             	  1.510e-005 	
        42.401	  8.290e-002 	             	
