;PC Software:StarLab Version 3.30 Build 10
! ******* Warning: Do not modify this file. Changes may prevent   ********
! ******* the StarLab Log reader from opening the file correctly. ********
;Logged:22/03/2021 at 16:57:48
;File Version:5
;Time Resolution:1 microseconds
;Log Settings:Stop after:period: 00:03:00
;Graph Mode:Split
;Notes:                                                            

;Channel A:Vega Thermopile 3A (s/n:940606)  VG2.52 (s/n:946462)
;Channel B:Vega Thermopile 3A (s/n:947746)  VG2.52 (s/n:946463)

;Channel A:Details
;Name:3A
;Graph Type:Line
;Graph Color:RGB(14,104,168)
;Units:W
;Settings:Measuring:Power
;Settings:Wavelength:532
;Settings:Range:AUTO

;Channel B:Details
;Name:3A
;Graph Type:Line
;Graph Color:RGB(245,86,16)
;Units:W
;Settings:Measuring:Power
;Settings:Wavelength:532
;Settings:Range:AUTO

;Channel A:Statistics
;Min:86.70mW             
;Max:87.00mW             
;Average:86.82mW             
;Std.Dev.:73.60uW             
;Overrange:0                   

;Channel B:Statistics
;Min:7.300uW             
;Max:17.20uW             
;Average:12.18uW             
;Std.Dev.:1.831uW             
;Overrange:0                   
;--------------------


;First Pulse Arrived : 22/03/2021 at 16:57:48.730000
  Timestamp   	  Channel A  	  Channel B  	
         0.000	  8.680e-002 	             	
         0.032	             	  1.270e-005 	
         0.064	  8.680e-002 	             	
         0.096	             	  1.270e-005 	
         0.128	  8.680e-002 	             	
         0.160	             	  1.270e-005 	
         0.191	  8.680e-002 	             	
         0.223	             	  1.270e-005 	
         0.255	  8.680e-002 	             	
         0.288	             	  1.270e-005 	
         0.320	  8.690e-002 	             	
         0.352	             	  1.270e-005 	
         0.384	  8.690e-002 	             	
         0.415	             	  1.260e-005 	
         0.480	  8.690e-002 	  1.260e-005 	
         0.543	  8.690e-002 	  1.260e-005 	
         0.607	  8.690e-002 	             	
         0.639	             	  1.270e-005 	
         0.671	  8.690e-002 	             	
         0.704	             	  1.270e-005 	
         0.736	  8.690e-002 	             	
         0.767	             	  1.270e-005 	
         0.800	  8.690e-002 	             	
         0.831	             	  1.270e-005 	
         0.864	  8.690e-002 	             	
         0.896	             	  1.280e-005 	
         0.928	  8.690e-002 	             	
         0.960	             	  1.280e-005 	
         0.992	  8.680e-002 	             	
         1.023	             	  1.280e-005 	
         1.056	  8.680e-002 	             	
         1.087	             	  1.290e-005 	
         1.120	  8.680e-002 	             	
         1.151	             	  1.300e-005 	
         1.184	  8.680e-002 	             	
         1.216	             	  1.310e-005 	
         1.279	  8.680e-002 	  1.310e-005 	
         1.344	  8.680e-002 	  1.310e-005 	
         1.408	  8.680e-002 	  1.310e-005 	
         1.472	  8.680e-002 	             	
         1.503	             	  1.310e-005 	
         1.535	  8.680e-002 	             	
         1.568	             	  1.320e-005 	
         1.600	  8.680e-002 	             	
         1.632	             	  1.320e-005 	
         1.664	  8.680e-002 	             	
         1.696	             	  1.310e-005 	
         1.728	  8.680e-002 	             	
         1.760	             	  1.310e-005 	
         1.791	  8.690e-002 	             	
         1.824	             	  1.310e-005 	
         1.856	  8.690e-002 	             	
         1.888	             	  1.310e-005 	
         1.920	  8.690e-002 	             	
         1.951	             	  1.320e-005 	
         1.984	  8.690e-002 	             	
         2.015	             	  1.320e-005 	
         2.079	  8.690e-002 	  1.320e-005 	
         2.144	  8.690e-002 	  1.320e-005 	
         2.208	  8.690e-002 	  1.320e-005 	
         2.272	  8.690e-002 	             	
         2.303	             	  1.320e-005 	
         2.336	  8.690e-002 	             	
         2.367	             	  1.330e-005 	
         2.399	  8.690e-002 	             	
         2.432	             	  1.330e-005 	
         2.463	  8.690e-002 	             	
         2.496	             	  1.330e-005 	
         2.528	  8.690e-002 	             	
         2.560	             	  1.340e-005 	
         2.591	  8.690e-002 	             	
         2.623	             	  1.340e-005 	
         2.655	  8.690e-002 	             	
         2.687	             	  1.350e-005 	
         2.720	  8.690e-002 	             	
         2.752	             	  1.360e-005 	
         2.784	  8.690e-002 	             	
         2.815	             	  1.370e-005 	
         2.880	  8.690e-002 	  1.370e-005 	
         2.943	  8.690e-002 	  1.380e-005 	
         3.008	  8.690e-002 	  1.380e-005 	
         3.071	  8.680e-002 	             	
         3.104	             	  1.380e-005 	
         3.136	  8.680e-002 	             	
         3.168	             	  1.380e-005 	
         3.199	  8.680e-002 	             	
         3.231	             	  1.380e-005 	
         3.264	  8.680e-002 	             	
         3.295	             	  1.380e-005 	
         3.328	  8.680e-002 	             	
         3.360	             	  1.380e-005 	
         3.392	  8.680e-002 	             	
         3.424	             	  1.380e-005 	
         3.455	  8.680e-002 	             	
         3.488	             	  1.380e-005 	
         3.520	  8.680e-002 	             	
         3.552	             	  1.380e-005 	
         3.583	  8.680e-002 	             	
         3.616	             	  1.380e-005 	
         3.680	  8.680e-002 	  1.380e-005 	
         3.743	  8.680e-002 	  1.380e-005 	
         3.807	  8.680e-002 	  1.380e-005 	
         3.872	  8.670e-002 	             	
         3.904	             	  1.380e-005 	
         3.936	  8.670e-002 	             	
         3.968	             	  1.380e-005 	
         4.000	  8.670e-002 	             	
         4.031	             	  1.380e-005 	
         4.063	  8.670e-002 	             	
         4.096	             	  1.370e-005 	
         4.127	  8.670e-002 	             	
         4.159	             	  1.370e-005 	
         4.191	  8.670e-002 	             	
         4.224	             	  1.360e-005 	
         4.255	  8.670e-002 	             	
         4.288	             	  1.360e-005 	
         4.320	  8.670e-002 	             	
         4.352	             	  1.360e-005 	
         4.384	  8.670e-002 	             	
         4.416	             	  1.350e-005 	
         4.479	  8.670e-002 	  1.350e-005 	
         4.544	  8.670e-002 	  1.350e-005 	
         4.608	  8.670e-002 	  1.340e-005 	
         4.672	  8.670e-002 	             	
         4.703	             	  1.340e-005 	
         4.736	  8.670e-002 	             	
         4.768	             	  1.340e-005 	
         4.799	  8.670e-002 	             	
         4.831	             	  1.340e-005 	
         4.863	  8.670e-002 	             	
         4.896	             	  1.340e-005 	
         4.927	  8.670e-002 	             	
         4.960	             	  1.330e-005 	
         4.992	  8.670e-002 	             	
         5.023	             	  1.330e-005 	
         5.056	  8.670e-002 	             	
         5.087	             	  1.330e-005 	
         5.119	  8.670e-002 	             	
         5.152	             	  1.320e-005 	
         5.184	  8.670e-002 	             	
         5.215	             	  1.310e-005 	
         5.280	  8.670e-002 	  1.300e-005 	
         5.343	  8.670e-002 	  1.290e-005 	
         5.407	  8.670e-002 	  1.280e-005 	
         5.472	  8.670e-002 	             	
         5.504	             	  1.270e-005 	
         5.536	  8.670e-002 	             	
         5.568	             	  1.260e-005 	
         5.600	  8.670e-002 	             	
         5.631	             	  1.250e-005 	
         5.663	  8.680e-002 	             	
         5.696	             	  1.250e-005 	
         5.728	  8.680e-002 	             	
         5.759	             	  1.240e-005 	
         5.791	  8.680e-002 	             	
         5.824	             	  1.220e-005 	
         5.855	  8.680e-002 	             	
         5.888	             	  1.210e-005 	
         5.920	  8.680e-002 	             	
         5.951	             	  1.210e-005 	
         5.984	  8.680e-002 	             	
         6.015	             	  1.200e-005 	
         6.079	  8.680e-002 	  1.190e-005 	
         6.144	  8.680e-002 	  1.190e-005 	
         6.208	  8.680e-002 	  1.180e-005 	
         6.271	  8.680e-002 	             	
         6.304	             	  1.170e-005 	
         6.335	  8.680e-002 	             	
         6.368	             	  1.160e-005 	
         6.400	  8.680e-002 	             	
         6.431	             	  1.160e-005 	
         6.463	  8.680e-002 	             	
         6.496	             	  1.160e-005 	
         6.528	  8.680e-002 	             	
         6.560	             	  1.160e-005 	
         6.592	  8.680e-002 	             	
         6.624	             	  1.160e-005 	
         6.655	  8.680e-002 	             	
         6.687	             	  1.160e-005 	
         6.720	  8.680e-002 	             	
         6.752	             	  1.170e-005 	
         6.783	  8.680e-002 	             	
         6.816	             	  1.170e-005 	
         6.879	  8.680e-002 	  1.180e-005 	
         6.943	  8.680e-002 	  1.190e-005 	
         7.008	  8.680e-002 	  1.190e-005 	
         7.072	  8.680e-002 	             	
         7.103	             	  1.200e-005 	
         7.136	  8.680e-002 	             	
         7.168	             	  1.200e-005 	
         7.199	  8.680e-002 	             	
         7.231	             	  1.210e-005 	
         7.264	  8.680e-002 	             	
         7.296	             	  1.210e-005 	
         7.328	  8.680e-002 	             	
         7.360	             	  1.210e-005 	
         7.391	  8.680e-002 	             	
         7.424	             	  1.210e-005 	
         7.456	  8.680e-002 	             	
         7.488	             	  1.210e-005 	
         7.520	  8.680e-002 	             	
         7.552	             	  1.210e-005 	
         7.583	  8.680e-002 	             	
         7.616	             	  1.200e-005 	
         7.680	  8.680e-002 	  1.200e-005 	
         7.743	  8.680e-002 	  1.200e-005 	
         7.807	  8.680e-002 	  1.190e-005 	
         7.872	  8.680e-002 	             	
         7.904	             	  1.190e-005 	
         7.935	  8.680e-002 	             	
         7.967	             	  1.180e-005 	
         7.999	  8.680e-002 	             	
         8.032	             	  1.180e-005 	
         8.064	  8.680e-002 	             	
         8.096	             	  1.180e-005 	
         8.128	  8.680e-002 	             	
         8.159	             	  1.180e-005 	
         8.192	  8.680e-002 	             	
         8.223	             	  1.180e-005 	
         8.255	  8.680e-002 	             	
         8.287	             	  1.180e-005 	
         8.319	  8.690e-002 	             	
         8.352	             	  1.180e-005 	
         8.384	  8.690e-002 	             	
         8.416	             	  1.170e-005 	
         8.447	  8.690e-002 	             	
         8.479	             	  1.170e-005 	
         8.544	  8.690e-002 	  1.170e-005 	
         8.607	  8.690e-002 	  1.170e-005 	
         8.672	  8.690e-002 	             	
         8.704	             	  1.180e-005 	
         8.736	  8.690e-002 	             	
         8.767	             	  1.180e-005 	
         8.800	  8.690e-002 	             	
         8.832	             	  1.200e-005 	
         8.863	  8.690e-002 	             	
         8.895	             	  1.210e-005 	
         8.927	  8.690e-002 	             	
         8.960	             	  1.220e-005 	
         8.991	  8.690e-002 	             	
         9.023	             	  1.220e-005 	
         9.055	  8.690e-002 	             	
         9.088	             	  1.220e-005 	
         9.119	  8.690e-002 	             	
         9.152	             	  1.220e-005 	
         9.183	  8.690e-002 	             	
         9.216	             	  1.220e-005 	
         9.248	  8.690e-002 	             	
         9.280	             	  1.220e-005 	
         9.343	  8.680e-002 	  1.210e-005 	
         9.408	  8.680e-002 	  1.210e-005 	
         9.472	  8.680e-002 	             	
         9.504	             	  1.210e-005 	
         9.536	  8.680e-002 	             	
         9.567	             	  1.210e-005 	
         9.600	  8.680e-002 	             	
         9.631	             	  1.210e-005 	
         9.664	  8.680e-002 	             	
         9.695	             	  1.210e-005 	
         9.727	  8.680e-002 	             	
         9.760	             	  1.220e-005 	
         9.791	  8.680e-002 	             	
         9.824	             	  1.220e-005 	
         9.855	  8.680e-002 	             	
         9.888	             	  1.230e-005 	
         9.919	  8.680e-002 	             	
         9.952	             	  1.230e-005 	
         9.984	  8.680e-002 	             	
        10.016	             	  1.220e-005 	
        10.047	  8.680e-002 	             	
        10.080	             	  1.210e-005 	
        10.143	  8.680e-002 	  1.200e-005 	
        10.208	  8.680e-002 	  1.200e-005 	
        10.271	  8.680e-002 	             	
        10.304	             	  1.200e-005 	
        10.336	  8.680e-002 	             	
        10.368	             	  1.200e-005 	
        10.400	  8.680e-002 	             	
        10.431	             	  1.200e-005 	
        10.464	  8.680e-002 	             	
        10.495	             	  1.200e-005 	
        10.528	  8.680e-002 	             	
        10.559	             	  1.210e-005 	
        10.591	  8.680e-002 	             	
        10.623	             	  1.210e-005 	
        10.656	  8.680e-002 	             	
        10.687	             	  1.220e-005 	
        10.720	  8.680e-002 	             	
        10.752	             	  1.230e-005 	
        10.784	  8.680e-002 	             	
        10.815	             	  1.230e-005 	
        10.848	  8.680e-002 	             	
        10.880	             	  1.240e-005 	
        10.944	  8.680e-002 	  1.240e-005 	
        11.007	  8.680e-002 	  1.240e-005 	
        11.071	  8.680e-002 	             	
        11.104	             	  1.250e-005 	
        11.135	  8.680e-002 	             	
        11.167	             	  1.250e-005 	
        11.200	  8.680e-002 	             	
        11.231	             	  1.250e-005 	
        11.263	  8.690e-002 	             	
        11.295	             	  1.250e-005 	
        11.327	  8.690e-002 	             	
        11.360	             	  1.250e-005 	
        11.392	  8.690e-002 	             	
        11.424	             	  1.250e-005 	
        11.456	  8.690e-002 	             	
        11.487	             	  1.250e-005 	
        11.520	  8.690e-002 	             	
        11.552	             	  1.260e-005 	
        11.583	  8.690e-002 	             	
        11.616	             	  1.270e-005 	
        11.648	  8.690e-002 	             	
        11.680	             	  1.280e-005 	
        11.744	  8.690e-002 	  1.280e-005 	
        11.808	  8.680e-002 	  1.290e-005 	
        11.872	  8.680e-002 	             	
        11.904	             	  1.300e-005 	
        11.936	  8.680e-002 	             	
        11.968	             	  1.300e-005 	
        12.000	  8.680e-002 	             	
        12.032	             	  1.290e-005 	
        12.064	  8.680e-002 	             	
        12.096	             	  1.290e-005 	
        12.128	  8.680e-002 	             	
        12.160	             	  1.290e-005 	
        12.191	  8.670e-002 	             	
        12.223	             	  1.290e-005 	
        12.255	  8.670e-002 	             	
        12.288	             	  1.280e-005 	
        12.320	  8.670e-002 	             	
        12.351	             	  1.280e-005 	
        12.383	  8.670e-002 	             	
        12.415	             	  1.270e-005 	
        12.448	  8.670e-002 	             	
        12.480	             	  1.270e-005 	
        12.544	  8.670e-002 	  1.260e-005 	
        12.607	  8.670e-002 	  1.260e-005 	
        12.672	  8.680e-002 	             	
        12.704	             	  1.270e-005 	
        12.736	  8.680e-002 	             	
        12.767	             	  1.270e-005 	
        12.799	  8.680e-002 	             	
        12.832	             	  1.270e-005 	
        12.863	  8.680e-002 	             	
        12.895	             	  1.270e-005 	
        12.927	  8.680e-002 	             	
        12.960	             	  1.280e-005 	
        12.992	  8.680e-002 	             	
        13.024	             	  1.280e-005 	
        13.056	  8.680e-002 	             	
        13.088	             	  1.290e-005 	
        13.119	  8.680e-002 	             	
        13.151	             	  1.290e-005 	
        13.183	  8.680e-002 	             	
        13.216	             	  1.290e-005 	
        13.248	  8.680e-002 	             	
        13.280	             	  1.290e-005 	
        13.344	  8.680e-002 	  1.280e-005 	
        13.408	  8.680e-002 	  1.280e-005 	
        13.471	  8.680e-002 	             	
        13.504	             	  1.270e-005 	
        13.536	  8.680e-002 	             	
        13.567	             	  1.270e-005 	
        13.599	  8.680e-002 	             	
        13.631	             	  1.270e-005 	
        13.663	  8.680e-002 	             	
        13.695	             	  1.280e-005 	
        13.727	  8.680e-002 	             	
        13.760	             	  1.280e-005 	
        13.792	  8.680e-002 	             	
        13.824	             	  1.280e-005 	
        13.855	  8.680e-002 	             	
        13.887	             	  1.280e-005 	
        13.920	  8.680e-002 	             	
        13.951	             	  1.280e-005 	
        13.984	  8.680e-002 	             	
        14.016	             	  1.270e-005 	
        14.048	  8.680e-002 	             	
        14.079	             	  1.270e-005 	
        14.144	  8.680e-002 	  1.270e-005 	
        14.208	  8.680e-002 	  1.270e-005 	
        14.272	  8.680e-002 	  1.270e-005 	
        14.336	  8.680e-002 	             	
        14.368	             	  1.270e-005 	
        14.400	  8.670e-002 	             	
        14.432	             	  1.270e-005 	
        14.464	  8.670e-002 	             	
        14.495	             	  1.270e-005 	
        14.528	  8.680e-002 	             	
        14.560	             	  1.270e-005 	
        14.591	  8.680e-002 	             	
        14.624	             	  1.270e-005 	
        14.655	  8.680e-002 	             	
        14.688	             	  1.260e-005 	
        14.720	  8.680e-002 	             	
        14.752	             	  1.260e-005 	
        14.784	  8.680e-002 	             	
        14.815	             	  1.250e-005 	
        14.847	  8.680e-002 	             	
        14.880	             	  1.240e-005 	
        14.943	  8.680e-002 	  1.240e-005 	
        15.007	  8.680e-002 	  1.230e-005 	
        15.071	  8.680e-002 	  1.230e-005 	
        15.135	  8.680e-002 	             	
        15.168	             	  1.230e-005 	
        15.200	  8.680e-002 	             	
        15.232	             	  1.220e-005 	
        15.264	  8.680e-002 	             	
        15.295	             	  1.220e-005 	
        15.327	  8.680e-002 	             	
        15.360	             	  1.210e-005 	
        15.392	  8.680e-002 	             	
        15.424	             	  1.210e-005 	
        15.455	  8.680e-002 	             	
        15.488	             	  1.200e-005 	
        15.520	  8.680e-002 	             	
        15.552	             	  1.190e-005 	
        15.583	  8.680e-002 	             	
        15.616	             	  1.190e-005 	
        15.647	  8.680e-002 	             	
        15.679	             	  1.180e-005 	
        15.744	  8.680e-002 	  1.180e-005 	
        15.807	  8.680e-002 	  1.180e-005 	
        15.872	  8.680e-002 	  1.180e-005 	
        15.935	  8.680e-002 	             	
        15.967	             	  1.180e-005 	
        15.999	  8.680e-002 	             	
        16.032	             	  1.180e-005 	
        16.063	  8.680e-002 	             	
        16.095	             	  1.180e-005 	
        16.127	  8.680e-002 	             	
        16.160	             	  1.180e-005 	
        16.192	  8.680e-002 	             	
        16.224	             	  1.180e-005 	
        16.256	  8.690e-002 	             	
        16.287	             	  1.180e-005 	
        16.320	  8.690e-002 	             	
        16.352	             	  1.180e-005 	
        16.383	  8.690e-002 	             	
        16.416	             	  1.180e-005 	
        16.448	  8.690e-002 	             	
        16.479	             	  1.180e-005 	
        16.543	  8.690e-002 	  1.180e-005 	
        16.608	  8.690e-002 	  1.180e-005 	
        16.672	  8.690e-002 	  1.180e-005 	
        16.736	  8.690e-002 	             	
        16.767	             	  1.190e-005 	
        16.799	  8.690e-002 	             	
        16.831	             	  1.190e-005 	
        16.863	  8.690e-002 	             	
        16.896	             	  1.200e-005 	
        16.928	  8.690e-002 	             	
        16.960	             	  1.200e-005 	
        16.991	  8.690e-002 	             	
        17.023	             	  1.210e-005 	
        17.056	  8.680e-002 	             	
        17.088	             	  1.210e-005 	
        17.120	  8.680e-002 	             	
        17.152	             	  1.220e-005 	
        17.184	  8.680e-002 	             	
        17.216	             	  1.220e-005 	
        17.248	  8.680e-002 	             	
        17.279	             	  1.230e-005 	
        17.344	  8.670e-002 	  1.220e-005 	
        17.408	  8.670e-002 	  1.220e-005 	
        17.472	  8.670e-002 	  1.210e-005 	
        17.536	  8.670e-002 	             	
        17.568	             	  1.210e-005 	
        17.600	  8.680e-002 	             	
        17.632	             	  1.210e-005 	
        17.663	  8.680e-002 	             	
        17.696	             	  1.210e-005 	
        17.728	  8.680e-002 	             	
        17.759	             	  1.190e-005 	
        17.792	  8.680e-002 	             	
        17.824	             	  1.180e-005 	
        17.855	  8.680e-002 	             	
        17.888	             	  1.170e-005 	
        17.920	  8.680e-002 	             	
        17.952	             	  1.150e-005 	
        17.984	  8.670e-002 	             	
        18.015	             	  1.150e-005 	
        18.047	  8.670e-002 	             	
        18.080	             	  1.140e-005 	
        18.143	  8.670e-002 	  1.140e-005 	
        18.207	  8.670e-002 	  1.140e-005 	
        18.271	  8.670e-002 	  1.140e-005 	
        18.336	  8.670e-002 	             	
        18.368	             	  1.140e-005 	
        18.400	  8.670e-002 	             	
        18.432	             	  1.140e-005 	
        18.464	  8.670e-002 	             	
        18.495	             	  1.150e-005 	
        18.528	  8.670e-002 	             	
        18.560	             	  1.150e-005 	
        18.592	  8.670e-002 	             	
        18.623	             	  1.160e-005 	
        18.656	  8.670e-002 	             	
        18.688	             	  1.160e-005 	
        18.720	  8.670e-002 	             	
        18.752	             	  1.170e-005 	
        18.784	  8.670e-002 	             	
        18.816	             	  1.170e-005 	
        18.848	  8.670e-002 	             	
        18.879	             	  1.180e-005 	
        18.944	  8.670e-002 	  1.180e-005 	
        19.007	  8.670e-002 	  1.180e-005 	
        19.072	  8.670e-002 	  1.180e-005 	
        19.135	  8.670e-002 	             	
        19.167	             	  1.180e-005 	
        19.199	  8.670e-002 	             	
        19.232	             	  1.170e-005 	
        19.264	  8.670e-002 	             	
        19.295	             	  1.160e-005 	
        19.327	  8.670e-002 	             	
        19.359	             	  1.160e-005 	
        19.392	  8.670e-002 	             	
        19.424	             	  1.150e-005 	
        19.456	  8.670e-002 	             	
        19.488	             	  1.140e-005 	
        19.519	  8.670e-002 	             	
        19.552	             	  1.130e-005 	
        19.583	  8.670e-002 	             	
        19.616	             	  1.110e-005 	
        19.647	  8.670e-002 	             	
        19.679	             	  1.080e-005 	
        19.743	  8.670e-002 	  1.040e-005 	
        19.808	  8.670e-002 	  1.010e-005 	
        19.871	  8.670e-002 	  9.700e-006 	
        19.935	  8.670e-002 	             	
        19.967	             	  9.400e-006 	
        19.999	  8.670e-002 	             	
        20.032	             	  9.100e-006 	
        20.064	  8.670e-002 	             	
        20.096	             	  8.800e-006 	
        20.127	  8.670e-002 	             	
        20.159	             	  8.600e-006 	
        20.191	  8.670e-002 	             	
        20.224	             	  8.500e-006 	
        20.256	  8.670e-002 	             	
        20.288	             	  8.400e-006 	
        20.320	  8.670e-002 	             	
        20.352	             	  8.300e-006 	
        20.384	  8.670e-002 	             	
        20.416	             	  8.200e-006 	
        20.448	  8.670e-002 	             	
        20.480	             	  8.200e-006 	
        20.543	  8.670e-002 	  8.100e-006 	
        20.608	  8.670e-002 	  8.100e-006 	
        20.672	  8.670e-002 	  8.200e-006 	
        20.736	  8.670e-002 	             	
        20.768	             	  8.300e-006 	
        20.800	  8.670e-002 	             	
        20.832	             	  8.300e-006 	
        20.863	  8.670e-002 	             	
        20.896	             	  8.400e-006 	
        20.927	  8.670e-002 	             	
        20.959	             	  8.400e-006 	
        20.991	  8.670e-002 	             	
        21.024	             	  8.500e-006 	
        21.055	  8.670e-002 	             	
        21.088	             	  8.500e-006 	
        21.120	  8.670e-002 	             	
        21.151	             	  8.600e-006 	
        21.184	  8.670e-002 	             	
        21.215	             	  8.700e-006 	
        21.247	  8.670e-002 	             	
        21.280	             	  8.700e-006 	
        21.311	  8.680e-002 	             	
        21.344	             	  8.900e-006 	
        21.408	  8.680e-002 	  9.000e-006 	
        21.472	  8.680e-002 	  9.100e-006 	
        21.536	  8.680e-002 	             	
        21.567	             	  9.300e-006 	
        21.599	  8.680e-002 	             	
        21.632	             	  9.400e-006 	
        21.663	  8.680e-002 	             	
        21.696	             	  9.500e-006 	
        21.728	  8.680e-002 	             	
        21.759	             	  9.500e-006 	
        21.791	  8.690e-002 	             	
        21.823	             	  9.600e-006 	
        21.856	  8.690e-002 	             	
        21.888	             	  9.700e-006 	
        21.920	  8.690e-002 	             	
        21.952	             	  9.800e-006 	
        21.983	  8.680e-002 	             	
        22.016	             	  9.800e-006 	
        22.048	  8.680e-002 	             	
        22.080	             	  9.900e-006 	
        22.112	  8.680e-002 	             	
        22.143	             	  9.800e-006 	
        22.208	  8.680e-002 	  9.900e-006 	
        22.272	  8.680e-002 	  9.900e-006 	
        22.336	  8.680e-002 	             	
        22.368	             	  1.000e-005 	
        22.400	  8.680e-002 	             	
        22.432	             	  1.010e-005 	
        22.464	  8.680e-002 	             	
        22.495	             	  1.020e-005 	
        22.528	  8.680e-002 	             	
        22.560	             	  1.030e-005 	
        22.591	  8.680e-002 	             	
        22.624	             	  1.040e-005 	
        22.655	  8.680e-002 	             	
        22.688	             	  1.050e-005 	
        22.720	  8.680e-002 	             	
        22.751	             	  1.060e-005 	
        22.783	  8.680e-002 	             	
        22.816	             	  1.070e-005 	
        22.848	  8.680e-002 	             	
        22.880	             	  1.080e-005 	
        22.911	  8.680e-002 	             	
        22.944	             	  1.090e-005 	
        23.007	  8.680e-002 	  1.110e-005 	
        23.071	  8.670e-002 	  1.130e-005 	
        23.136	  8.670e-002 	             	
        23.168	             	  1.150e-005 	
        23.199	  8.670e-002 	             	
        23.231	             	  1.160e-005 	
        23.263	  8.670e-002 	             	
        23.295	             	  1.180e-005 	
        23.328	  8.670e-002 	             	
        23.360	             	  1.200e-005 	
        23.392	  8.670e-002 	             	
        23.423	             	  1.220e-005 	
        23.456	  8.670e-002 	             	
        23.488	             	  1.240e-005 	
        23.519	  8.670e-002 	             	
        23.551	             	  1.260e-005 	
        23.584	  8.670e-002 	             	
        23.615	             	  1.290e-005 	
        23.647	  8.670e-002 	             	
        23.680	             	  1.310e-005 	
        23.711	  8.680e-002 	             	
        23.743	             	  1.330e-005 	
        23.808	  8.680e-002 	  1.350e-005 	
        23.871	  8.680e-002 	  1.370e-005 	
        23.936	  8.680e-002 	             	
        23.968	             	  1.390e-005 	
        24.000	  8.680e-002 	             	
        24.032	             	  1.410e-005 	
        24.063	  8.680e-002 	             	
        24.095	             	  1.430e-005 	
        24.128	  8.680e-002 	             	
        24.159	             	  1.450e-005 	
        24.191	  8.680e-002 	             	
        24.224	             	  1.480e-005 	
        24.256	  8.680e-002 	             	
        24.288	             	  1.500e-005 	
        24.320	  8.670e-002 	             	
        24.352	             	  1.520e-005 	
        24.384	  8.670e-002 	             	
        24.416	             	  1.540e-005 	
        24.448	  8.680e-002 	             	
        24.479	             	  1.560e-005 	
        24.511	  8.680e-002 	             	
        24.543	             	  1.590e-005 	
        24.607	  8.680e-002 	  1.610e-005 	
        24.671	  8.680e-002 	  1.630e-005 	
        24.735	  8.680e-002 	             	
        24.767	             	  1.640e-005 	
        24.800	  8.680e-002 	             	
        24.831	             	  1.650e-005 	
        24.864	  8.680e-002 	             	
        24.896	             	  1.660e-005 	
        24.928	  8.680e-002 	             	
        24.960	             	  1.660e-005 	
        24.992	  8.680e-002 	             	
        25.024	             	  1.680e-005 	
        25.056	  8.680e-002 	             	
        25.088	             	  1.690e-005 	
        25.119	  8.680e-002 	             	
        25.152	             	  1.700e-005 	
        25.184	  8.690e-002 	             	
        25.216	             	  1.710e-005 	
        25.247	  8.690e-002 	             	
        25.280	             	  1.710e-005 	
        25.312	  8.690e-002 	             	
        25.343	             	  1.710e-005 	
        25.408	  8.690e-002 	  1.710e-005 	
        25.472	  8.690e-002 	  1.710e-005 	
        25.535	  8.690e-002 	             	
        25.568	             	  1.720e-005 	
        25.599	  8.690e-002 	             	
        25.632	             	  1.720e-005 	
        25.663	  8.690e-002 	             	
        25.696	             	  1.720e-005 	
        25.728	  8.700e-002 	             	
        25.759	             	  1.720e-005 	
        25.791	  8.700e-002 	             	
        25.823	             	  1.710e-005 	
        25.856	  8.700e-002 	             	
        25.888	             	  1.710e-005 	
        25.919	  8.700e-002 	             	
        25.952	             	  1.690e-005 	
        25.984	  8.700e-002 	             	
        26.016	             	  1.680e-005 	
        26.047	  8.690e-002 	             	
        26.079	             	  1.660e-005 	
        26.112	  8.690e-002 	             	
        26.143	             	  1.650e-005 	
        26.208	  8.690e-002 	  1.640e-005 	
        26.271	  8.690e-002 	  1.630e-005 	
        26.336	  8.680e-002 	             	
        26.368	             	  1.620e-005 	
        26.399	  8.680e-002 	             	
        26.432	             	  1.610e-005 	
        26.463	  8.680e-002 	             	
        26.495	             	  1.600e-005 	
        26.527	  8.680e-002 	             	
        26.559	             	  1.590e-005 	
        26.591	  8.670e-002 	             	
        26.624	             	  1.580e-005 	
        26.655	  8.670e-002 	             	
        26.687	             	  1.580e-005 	
        26.719	  8.670e-002 	             	
        26.752	             	  1.570e-005 	
        26.784	  8.670e-002 	             	
        26.815	             	  1.560e-005 	
        26.848	  8.670e-002 	             	
        26.880	             	  1.550e-005 	
        26.912	  8.680e-002 	             	
        26.943	             	  1.540e-005 	
        27.007	  8.680e-002 	  1.530e-005 	
        27.072	  8.680e-002 	  1.520e-005 	
        27.136	  8.680e-002 	             	
        27.168	             	  1.500e-005 	
        27.200	  8.680e-002 	             	
        27.231	             	  1.490e-005 	
        27.264	  8.680e-002 	             	
        27.295	             	  1.480e-005 	
        27.327	  8.680e-002 	             	
        27.360	             	  1.470e-005 	
        27.391	  8.680e-002 	             	
        27.423	             	  1.460e-005 	
        27.456	  8.680e-002 	             	
        27.488	             	  1.450e-005 	
        27.520	  8.680e-002 	             	
        27.551	             	  1.450e-005 	
        27.583	  8.680e-002 	             	
        27.616	             	  1.450e-005 	
        27.648	  8.680e-002 	             	
        27.679	             	  1.450e-005 	
        27.711	  8.680e-002 	             	
        27.743	             	  1.450e-005 	
        27.808	  8.680e-002 	  1.450e-005 	
        27.872	  8.680e-002 	  1.440e-005 	
        27.936	  8.680e-002 	  1.440e-005 	
        28.000	  8.680e-002 	             	
        28.031	             	  1.430e-005 	
        28.064	  8.680e-002 	             	
        28.095	             	  1.420e-005 	
        28.127	  8.680e-002 	             	
        28.159	             	  1.410e-005 	
        28.192	  8.680e-002 	             	
        28.223	             	  1.400e-005 	
        28.256	  8.680e-002 	             	
        28.287	             	  1.390e-005 	
        28.320	  8.680e-002 	             	
        28.352	             	  1.380e-005 	
        28.384	  8.680e-002 	             	
        28.415	             	  1.380e-005 	
        28.447	  8.680e-002 	             	
        28.479	             	  1.370e-005 	
        28.511	  8.680e-002 	             	
        28.543	             	  1.350e-005 	
        28.608	  8.680e-002 	  1.350e-005 	
        28.672	  8.680e-002 	  1.340e-005 	
        28.736	  8.680e-002 	  1.330e-005 	
        28.800	  8.680e-002 	             	
        28.832	             	  1.330e-005 	
        28.863	  8.680e-002 	             	
        28.895	             	  1.320e-005 	
        28.927	  8.680e-002 	             	
        28.960	             	  1.310e-005 	
        28.991	  8.680e-002 	             	
        29.023	             	  1.310e-005 	
        29.056	  8.680e-002 	             	
        29.088	             	  1.310e-005 	
        29.120	  8.680e-002 	             	
        29.152	             	  1.310e-005 	
        29.184	  8.690e-002 	             	
        29.216	             	  1.320e-005 	
        29.248	  8.690e-002 	             	
        29.279	             	  1.320e-005 	
        29.311	  8.690e-002 	             	
        29.344	             	  1.310e-005 	
        29.407	  8.690e-002 	  1.310e-005 	
        29.472	  8.690e-002 	  1.320e-005 	
        29.535	  8.690e-002 	  1.320e-005 	
        29.599	  8.690e-002 	             	
        29.632	             	  1.320e-005 	
        29.663	  8.690e-002 	             	
        29.696	             	  1.330e-005 	
        29.728	  8.690e-002 	             	
        29.760	             	  1.330e-005 	
        29.792	  8.690e-002 	             	
        29.824	             	  1.330e-005 	
        29.855	  8.690e-002 	             	
        29.888	             	  1.330e-005 	
        29.920	  8.690e-002 	             	
        29.952	             	  1.330e-005 	
        29.983	  8.690e-002 	             	
        30.016	             	  1.330e-005 	
        30.048	  8.690e-002 	             	
        30.079	             	  1.320e-005 	
        30.111	  8.690e-002 	             	
        30.144	             	  1.320e-005 	
        30.208	  8.690e-002 	  1.310e-005 	
        30.272	  8.690e-002 	  1.300e-005 	
        30.336	  8.690e-002 	  1.290e-005 	
        30.400	  8.690e-002 	             	
        30.431	             	  1.280e-005 	
        30.464	  8.690e-002 	             	
        30.495	             	  1.270e-005 	
        30.527	  8.690e-002 	             	
        30.560	             	  1.260e-005 	
        30.591	  8.690e-002 	             	
        30.624	             	  1.260e-005 	
        30.656	  8.690e-002 	             	
        30.687	             	  1.250e-005 	
        30.720	  8.680e-002 	             	
        30.751	             	  1.250e-005 	
        30.784	  8.680e-002 	             	
        30.816	             	  1.250e-005 	
        30.847	  8.680e-002 	             	
        30.880	             	  1.250e-005 	
        30.912	  8.680e-002 	             	
        30.944	             	  1.250e-005 	
        31.008	  8.680e-002 	  1.250e-005 	
        31.071	  8.690e-002 	  1.250e-005 	
        31.136	  8.690e-002 	  1.250e-005 	
        31.199	  8.690e-002 	             	
        31.232	             	  1.260e-005 	
        31.263	  8.690e-002 	             	
        31.296	             	  1.260e-005 	
        31.328	  8.690e-002 	             	
        31.359	             	  1.260e-005 	
        31.392	  8.690e-002 	             	
        31.423	             	  1.260e-005 	
        31.456	  8.690e-002 	             	
        31.488	             	  1.270e-005 	
        31.520	  8.690e-002 	             	
        31.552	             	  1.270e-005 	
        31.584	  8.690e-002 	             	
        31.616	             	  1.270e-005 	
        31.648	  8.690e-002 	             	
        31.680	             	  1.270e-005 	
        31.712	  8.700e-002 	             	
        31.743	             	  1.270e-005 	
        31.807	  8.700e-002 	  1.270e-005 	
        31.872	  8.700e-002 	  1.270e-005 	
        31.936	  8.700e-002 	  1.260e-005 	
        32.000	  8.700e-002 	             	
        32.031	             	  1.260e-005 	
        32.064	  8.690e-002 	             	
        32.096	             	  1.260e-005 	
        32.128	  8.690e-002 	             	
        32.160	             	  1.260e-005 	
        32.192	  8.690e-002 	             	
        32.223	             	  1.260e-005 	
        32.255	  8.690e-002 	             	
        32.288	             	  1.260e-005 	
        32.320	  8.690e-002 	             	
        32.352	             	  1.250e-005 	
        32.384	  8.690e-002 	             	
        32.416	             	  1.250e-005 	
        32.448	  8.690e-002 	             	
        32.479	             	  1.250e-005 	
        32.511	  8.690e-002 	             	
        32.544	             	  1.250e-005 	
        32.607	  8.690e-002 	  1.240e-005 	
        32.672	  8.690e-002 	  1.230e-005 	
        32.736	  8.690e-002 	  1.230e-005 	
        32.800	  8.680e-002 	             	
        32.831	             	  1.220e-005 	
        32.864	  8.680e-002 	             	
        32.895	             	  1.220e-005 	
        32.927	  8.680e-002 	             	
        32.959	             	  1.220e-005 	
        32.991	  8.680e-002 	             	
        33.023	             	  1.220e-005 	
        33.055	  8.680e-002 	             	
        33.087	             	  1.230e-005 	
        33.119	  8.680e-002 	             	
        33.151	             	  1.230e-005 	
        33.184	  8.680e-002 	             	
        33.216	             	  1.240e-005 	
        33.247	  8.680e-002 	             	
        33.280	             	  1.240e-005 	
        33.311	  8.680e-002 	             	
        33.344	             	  1.240e-005 	
        33.407	  8.680e-002 	  1.240e-005 	
        33.472	  8.680e-002 	  1.240e-005 	
        33.536	  8.680e-002 	  1.240e-005 	
        33.599	  8.680e-002 	             	
        33.632	             	  1.240e-005 	
        33.664	  8.680e-002 	             	
        33.695	             	  1.240e-005 	
        33.728	  8.680e-002 	             	
        33.759	             	  1.240e-005 	
        33.791	  8.680e-002 	             	
        33.823	             	  1.230e-005 	
        33.855	  8.680e-002 	             	
        33.887	             	  1.220e-005 	
        33.919	  8.680e-002 	             	
        33.952	             	  1.210e-005 	
        33.983	  8.680e-002 	             	
        34.015	             	  1.210e-005 	
        34.047	  8.680e-002 	             	
        34.080	             	  1.210e-005 	
        34.111	  8.690e-002 	             	
        34.144	             	  1.210e-005 	
        34.176	  8.690e-002 	             	
        34.208	             	  1.210e-005 	
        34.272	  8.690e-002 	  1.210e-005 	
        34.335	  8.690e-002 	  1.210e-005 	
        34.400	  8.690e-002 	             	
        34.432	             	  1.220e-005 	
        34.464	  8.690e-002 	             	
        34.495	             	  1.220e-005 	
        34.528	  8.690e-002 	             	
        34.560	             	  1.220e-005 	
        34.592	  8.690e-002 	             	
        34.623	             	  1.220e-005 	
        34.655	  8.690e-002 	             	
        34.688	             	  1.220e-005 	
        34.719	  8.690e-002 	             	
        34.751	             	  1.220e-005 	
        34.784	  8.690e-002 	             	
        34.816	             	  1.210e-005 	
        34.848	  8.690e-002 	             	
        34.880	             	  1.200e-005 	
        34.911	  8.690e-002 	             	
        34.944	             	  1.190e-005 	
        34.976	  8.690e-002 	             	
        35.007	             	  1.170e-005 	
        35.072	  8.690e-002 	  1.170e-005 	
        35.136	  8.690e-002 	  1.160e-005 	
        35.199	  8.690e-002 	             	
        35.231	             	  1.150e-005 	
        35.264	  8.690e-002 	             	
        35.296	             	  1.150e-005 	
        35.328	  8.690e-002 	             	
        35.360	             	  1.150e-005 	
        35.392	  8.690e-002 	             	
        35.423	             	  1.150e-005 	
        35.456	  8.690e-002 	             	
        35.488	             	  1.150e-005 	
        35.520	  8.690e-002 	             	
        35.552	             	  1.140e-005 	
        35.584	  8.700e-002 	             	
        35.616	             	  1.140e-005 	
        35.647	  8.700e-002 	             	
        35.680	             	  1.130e-005 	
        35.711	  8.700e-002 	             	
        35.743	             	  1.120e-005 	
        35.775	  8.700e-002 	             	
        35.808	             	  1.100e-005 	
        35.872	  8.700e-002 	  1.090e-005 	
        35.936	  8.690e-002 	  1.080e-005 	
        36.000	  8.690e-002 	             	
        36.031	             	  1.070e-005 	
        36.064	  8.690e-002 	             	
        36.095	             	  1.060e-005 	
        36.128	  8.690e-002 	             	
        36.160	             	  1.060e-005 	
        36.191	  8.690e-002 	             	
        36.223	             	  1.050e-005 	
        36.255	  8.690e-002 	             	
        36.288	             	  1.050e-005 	
        36.319	  8.690e-002 	             	
        36.352	             	  1.050e-005 	
        36.384	  8.690e-002 	             	
        36.415	             	  1.050e-005 	
        36.448	  8.690e-002 	             	
        36.480	             	  1.060e-005 	
        36.512	  8.690e-002 	             	
        36.543	             	  1.070e-005 	
        36.576	  8.680e-002 	             	
        36.608	             	  1.070e-005 	
        36.671	  8.680e-002 	  1.080e-005 	
        36.736	  8.680e-002 	  1.090e-005 	
        36.800	  8.680e-002 	             	
        36.831	             	  1.090e-005 	
        36.863	  8.680e-002 	             	
        36.896	             	  1.100e-005 	
        36.928	  8.680e-002 	             	
        36.960	             	  1.110e-005 	
        36.991	  8.680e-002 	             	
        37.024	             	  1.110e-005 	
        37.055	  8.680e-002 	             	
        37.088	             	  1.120e-005 	
        37.120	  8.680e-002 	             	
        37.152	             	  1.120e-005 	
        37.183	  8.680e-002 	             	
        37.215	             	  1.120e-005 	
        37.248	  8.680e-002 	             	
        37.279	             	  1.120e-005 	
        37.312	  8.680e-002 	             	
        37.343	             	  1.120e-005 	
        37.375	  8.680e-002 	             	
        37.407	             	  1.120e-005 	
        37.472	  8.680e-002 	  1.110e-005 	
        37.535	  8.680e-002 	  1.110e-005 	
        37.599	  8.690e-002 	             	
        37.632	             	  1.100e-005 	
        37.663	  8.690e-002 	             	
        37.695	             	  1.090e-005 	
        37.727	  8.690e-002 	             	
        37.760	             	  1.080e-005 	
        37.792	  8.690e-002 	             	
        37.823	             	  1.070e-005 	
        37.856	  8.690e-002 	             	
        37.887	             	  1.070e-005 	
        37.920	  8.690e-002 	             	
        37.952	             	  1.070e-005 	
        37.984	  8.690e-002 	             	
        38.015	             	  1.070e-005 	
        38.048	  8.690e-002 	             	
        38.080	             	  1.070e-005 	
        38.112	  8.690e-002 	             	
        38.144	             	  1.070e-005 	
        38.175	  8.690e-002 	             	
        38.207	             	  1.080e-005 	
        38.271	  8.690e-002 	  1.080e-005 	
        38.336	  8.680e-002 	  1.090e-005 	
        38.400	  8.680e-002 	  1.090e-005 	
        38.464	  8.680e-002 	             	
        38.496	             	  1.090e-005 	
        38.528	  8.680e-002 	             	
        38.560	             	  1.100e-005 	
        38.591	  8.680e-002 	             	
        38.623	             	  1.100e-005 	
        38.655	  8.680e-002 	             	
        38.687	             	  1.100e-005 	
        38.719	  8.680e-002 	             	
        38.752	             	  1.100e-005 	
        38.784	  8.680e-002 	             	
        38.815	             	  1.090e-005 	
        38.848	  8.680e-002 	             	
        38.880	             	  1.090e-005 	
        38.911	  8.680e-002 	             	
        38.943	             	  1.090e-005 	
        38.976	  8.680e-002 	             	
        39.008	             	  1.090e-005 	
        39.072	  8.680e-002 	  1.090e-005 	
        39.136	  8.680e-002 	  1.090e-005 	
        39.200	  8.680e-002 	  1.090e-005 	
        39.264	  8.690e-002 	             	
        39.296	             	  1.090e-005 	
        39.328	  8.690e-002 	             	
        39.360	             	  1.090e-005 	
        39.392	  8.690e-002 	             	
        39.424	             	  1.080e-005 	
        39.456	  8.690e-002 	             	
        39.487	             	  1.070e-005 	
        39.520	  8.690e-002 	             	
        39.551	             	  1.070e-005 	
        39.583	  8.690e-002 	             	
        39.616	             	  1.060e-005 	
        39.648	  8.690e-002 	             	
        39.679	             	  1.060e-005 	
        39.712	  8.690e-002 	             	
        39.743	             	  1.050e-005 	
        39.775	  8.680e-002 	             	
        39.808	             	  1.050e-005 	
        39.871	  8.680e-002 	  1.050e-005 	
        39.935	  8.680e-002 	  1.050e-005 	
        40.000	  8.680e-002 	  1.050e-005 	
        40.064	  8.680e-002 	             	
        40.096	             	  1.050e-005 	
        40.128	  8.680e-002 	             	
        40.159	             	  1.050e-005 	
        40.191	  8.680e-002 	             	
        40.224	             	  1.040e-005 	
        40.256	  8.680e-002 	             	
        40.287	             	  1.030e-005 	
        40.320	  8.680e-002 	             	
        40.351	             	  1.020e-005 	
        40.384	  8.680e-002 	             	
        40.415	             	  1.010e-005 	
        40.448	  8.680e-002 	             	
        40.479	             	  1.000e-005 	
        40.512	  8.680e-002 	             	
        40.544	             	  1.000e-005 	
        40.576	  8.680e-002 	             	
        40.608	             	  1.000e-005 	
        40.671	  8.680e-002 	  1.000e-005 	
        40.735	  8.680e-002 	             	
        40.736	             	  1.000e-005 	
        40.800	  8.690e-002 	  9.900e-006 	
        40.863	  8.690e-002 	             	
        40.896	             	  9.900e-006 	
        40.927	  8.690e-002 	             	
        40.960	             	  9.700e-006 	
        40.991	  8.690e-002 	             	
        41.024	             	  9.500e-006 	
        41.055	  8.690e-002 	             	
        41.088	             	  9.300e-006 	
        41.120	  8.690e-002 	             	
        41.152	             	  9.100e-006 	
        41.183	  8.690e-002 	             	
        41.215	             	  8.900e-006 	
        41.248	  8.690e-002 	             	
        41.280	             	  8.600e-006 	
        41.311	  8.690e-002 	             	
        41.344	             	  8.400e-006 	
        41.376	  8.680e-002 	             	
        41.407	             	  8.300e-006 	
        41.472	  8.680e-002 	  8.100e-006 	
        41.535	  8.680e-002 	  8.000e-006 	
        41.600	  8.680e-002 	  7.800e-006 	
        41.663	  8.680e-002 	             	
        41.696	             	  7.700e-006 	
        41.728	  8.680e-002 	             	
        41.759	             	  7.600e-006 	
        41.791	  8.680e-002 	             	
        41.823	             	  7.500e-006 	
        41.855	  8.680e-002 	             	
        41.887	             	  7.400e-006 	
        41.919	  8.670e-002 	             	
        41.951	             	  7.400e-006 	
        41.984	  8.670e-002 	             	
        42.016	             	  7.300e-006 	
        42.048	  8.670e-002 	             	
        42.080	             	  7.300e-006 	
        42.112	  8.670e-002 	             	
        42.144	             	  7.300e-006 	
        42.176	  8.670e-002 	             	
        42.208	             	  7.300e-006 	
        42.271	  8.670e-002 	  7.400e-006 	
        42.336	  8.670e-002 	  7.500e-006 	
        42.400	  8.670e-002 	  7.700e-006 	
        42.463	  8.670e-002 	             	
        42.496	             	  7.800e-006 	
        42.528	  8.670e-002 	             	
