;PC Software:StarLab Version 3.30 Build 10
! ******* Warning: Do not modify this file. Changes may prevent   ********
! ******* the StarLab Log reader from opening the file correctly. ********
;Logged:23/03/2021 at 11:25:13
;File Version:5
;Time Resolution:1 microseconds
;Log Settings:Stop after:period: 00:05:00
;Graph Mode:Split
;Notes:                                                            

;Channel A:Vega Thermopile 3A (s/n:940606)  VG2.52 (s/n:946462)
;Channel B:Vega Thermopile 3A (s/n:947746)  VG2.52 (s/n:946463)

;Channel A:Details
;Name:3A
;Graph Type:Line
;Graph Color:RGB(14,104,168)
;Units:W
;Settings:Measuring:Power
;Settings:Wavelength:532
;Settings:Range:AUTO

;Channel B:Details
;Name:3A
;Graph Type:Line
;Graph Color:RGB(245,86,16)
;Units:W
;Settings:Measuring:Power
;Settings:Wavelength:532
;Settings:Range:AUTO

;Channel A:Statistics
;Min:86.50mW             
;Max:86.90mW             
;Average:86.68mW             
;Std.Dev.:96.79uW             
;Overrange:0                   

;Channel B:Statistics
;Min:504.0uW             
;Max:531.0uW             
;Average:516.8uW             
;Std.Dev.:8.540uW             
;Overrange:0                   
;--------------------


;First Pulse Arrived : 23/03/2021 at 11:25:13.393000
  Timestamp   	  Channel A  	  Channel B  	
         0.000	  8.670e-002 	             	
         0.031	             	  5.040e-004 	
         0.063	  8.670e-002 	             	
         0.095	             	  5.040e-004 	
         0.127	  8.670e-002 	             	
         0.159	             	  5.050e-004 	
         0.191	  8.670e-002 	             	
         0.223	             	  5.050e-004 	
         0.255	  8.670e-002 	             	
         0.319	  8.670e-002 	  5.050e-004 	
         0.383	             	  5.050e-004 	
         0.415	  8.670e-002 	             	
         0.447	             	  5.050e-004 	
         0.480	  8.670e-002 	             	
         0.511	             	  5.050e-004 	
         0.543	  8.670e-002 	             	
         0.576	             	  5.050e-004 	
         0.607	  8.670e-002 	             	
         0.639	             	  5.050e-004 	
         0.671	  8.670e-002 	             	
         0.703	             	  5.050e-004 	
         0.735	  8.670e-002 	             	
         0.768	             	  5.050e-004 	
         0.800	  8.670e-002 	             	
         0.831	             	  5.060e-004 	
         0.863	  8.670e-002 	             	
         0.895	             	  5.060e-004 	
         0.928	  8.670e-002 	             	
         0.959	             	  5.060e-004 	
         0.991	  8.660e-002 	             	
         1.023	             	  5.060e-004 	
         1.056	  8.660e-002 	             	
         1.119	  8.660e-002 	  5.060e-004 	
         1.183	             	  5.060e-004 	
         1.215	  8.660e-002 	             	
         1.247	             	  5.060e-004 	
         1.280	  8.660e-002 	             	
         1.311	             	  5.060e-004 	
         1.344	  8.660e-002 	             	
         1.376	             	  5.070e-004 	
         1.408	  8.660e-002 	             	
         1.439	             	  5.070e-004 	
         1.471	  8.660e-002 	             	
         1.504	             	  5.070e-004 	
         1.536	  8.660e-002 	             	
         1.567	             	  5.070e-004 	
         1.599	  8.660e-002 	             	
         1.631	             	  5.070e-004 	
         1.663	  8.660e-002 	             	
         1.695	             	  5.070e-004 	
         1.727	  8.660e-002 	             	
         1.759	             	  5.070e-004 	
         1.791	  8.660e-002 	             	
         1.823	             	  5.070e-004 	
         1.855	  8.660e-002 	             	
         1.920	  8.660e-002 	  5.070e-004 	
         1.983	  8.660e-002 	  5.070e-004 	
         2.047	             	  5.070e-004 	
         2.079	  8.660e-002 	             	
         2.112	             	  5.070e-004 	
         2.143	  8.660e-002 	             	
         2.176	             	  5.070e-004 	
         2.207	  8.660e-002 	             	
         2.239	             	  5.070e-004 	
         2.271	  8.660e-002 	             	
         2.303	             	  5.060e-004 	
         2.335	  8.660e-002 	             	
         2.368	             	  5.060e-004 	
         2.399	  8.660e-002 	             	
         2.431	             	  5.060e-004 	
         2.463	  8.660e-002 	             	
         2.495	             	  5.060e-004 	
         2.527	  8.660e-002 	             	
         2.559	             	  5.060e-004 	
         2.591	  8.660e-002 	             	
         2.623	             	  5.060e-004 	
         2.656	  8.660e-002 	             	
         2.719	  8.660e-002 	  5.060e-004 	
         2.783	  8.660e-002 	  5.060e-004 	
         2.847	             	  5.060e-004 	
         2.879	  8.660e-002 	             	
         2.911	             	  5.060e-004 	
         2.944	  8.660e-002 	             	
         2.976	             	  5.060e-004 	
         3.007	  8.660e-002 	             	
         3.039	             	  5.060e-004 	
         3.071	  8.660e-002 	             	
         3.103	             	  5.060e-004 	
         3.135	  8.660e-002 	             	
         3.168	             	  5.060e-004 	
         3.199	  8.660e-002 	             	
         3.231	             	  5.060e-004 	
         3.263	  8.660e-002 	             	
         3.295	             	  5.060e-004 	
         3.327	  8.660e-002 	             	
         3.359	             	  5.060e-004 	
         3.391	  8.660e-002 	             	
         3.423	             	  5.050e-004 	
         3.456	  8.660e-002 	             	
         3.519	  8.660e-002 	  5.050e-004 	
         3.583	  8.660e-002 	  5.050e-004 	
         3.647	             	  5.050e-004 	
         3.679	  8.660e-002 	             	
         3.711	             	  5.050e-004 	
         3.743	  8.660e-002 	             	
         3.775	             	  5.040e-004 	
         3.807	  8.660e-002 	             	
         3.839	             	  5.040e-004 	
         3.871	  8.660e-002 	             	
         3.903	             	  5.040e-004 	
         3.936	  8.660e-002 	             	
         3.967	             	  5.040e-004 	
         3.999	  8.660e-002 	             	
         4.031	             	  5.040e-004 	
         4.064	  8.660e-002 	             	
         4.095	             	  5.050e-004 	
         4.128	  8.660e-002 	             	
         4.160	             	  5.050e-004 	
         4.192	  8.660e-002 	             	
         4.224	             	  5.050e-004 	
         4.255	  8.660e-002 	             	
         4.320	  8.660e-002 	  5.050e-004 	
         4.383	  8.660e-002 	  5.050e-004 	
         4.447	             	  5.050e-004 	
         4.479	  8.660e-002 	             	
         4.512	             	  5.060e-004 	
         4.544	  8.660e-002 	             	
         4.575	             	  5.060e-004 	
         4.607	  8.660e-002 	             	
         4.640	             	  5.060e-004 	
         4.672	  8.660e-002 	             	
         4.703	             	  5.060e-004 	
         4.735	  8.660e-002 	             	
         4.767	             	  5.060e-004 	
         4.799	  8.660e-002 	             	
         4.831	             	  5.060e-004 	
         4.863	  8.650e-002 	             	
         4.895	             	  5.060e-004 	
         4.927	  8.650e-002 	             	
         4.959	             	  5.060e-004 	
         4.992	  8.650e-002 	             	
         5.024	             	  5.060e-004 	
         5.056	  8.650e-002 	             	
         5.119	  8.650e-002 	             	
         5.120	             	  5.060e-004 	
         5.183	  8.650e-002 	  5.060e-004 	
         5.247	             	  5.060e-004 	
         5.279	  8.650e-002 	             	
         5.311	             	  5.060e-004 	
         5.344	  8.650e-002 	             	
         5.375	             	  5.060e-004 	
         5.407	  8.650e-002 	             	
         5.439	             	  5.060e-004 	
         5.471	  8.650e-002 	             	
         5.504	             	  5.060e-004 	
         5.536	  8.650e-002 	             	
         5.567	             	  5.060e-004 	
         5.599	  8.660e-002 	             	
         5.631	             	  5.060e-004 	
         5.663	  8.660e-002 	             	
         5.695	             	  5.070e-004 	
         5.727	  8.660e-002 	             	
         5.759	             	  5.070e-004 	
         5.792	  8.660e-002 	             	
         5.824	             	  5.070e-004 	
         5.856	  8.660e-002 	             	
         5.919	  8.660e-002 	  5.070e-004 	
         5.983	  8.660e-002 	  5.070e-004 	
         6.047	             	  5.070e-004 	
         6.079	  8.660e-002 	             	
         6.112	             	  5.070e-004 	
         6.143	  8.660e-002 	             	
         6.175	             	  5.080e-004 	
         6.208	  8.660e-002 	             	
         6.239	             	  5.080e-004 	
         6.271	  8.660e-002 	             	
         6.303	             	  5.080e-004 	
         6.335	  8.660e-002 	             	
         6.367	             	  5.080e-004 	
         6.400	  8.660e-002 	             	
         6.431	             	  5.080e-004 	
         6.464	  8.660e-002 	             	
         6.496	             	  5.080e-004 	
         6.527	  8.660e-002 	             	
         6.559	             	  5.080e-004 	
         6.592	  8.660e-002 	             	
         6.624	             	  5.080e-004 	
         6.656	  8.660e-002 	             	
         6.719	  8.660e-002 	  5.080e-004 	
         6.783	  8.660e-002 	  5.080e-004 	
         6.847	             	  5.080e-004 	
         6.879	  8.660e-002 	             	
         6.911	             	  5.080e-004 	
         6.943	  8.660e-002 	             	
         6.976	             	  5.080e-004 	
         7.007	  8.660e-002 	             	
         7.040	             	  5.080e-004 	
         7.071	  8.660e-002 	             	
         7.103	             	  5.080e-004 	
         7.135	  8.660e-002 	             	
         7.168	             	  5.080e-004 	
         7.199	  8.660e-002 	             	
         7.231	             	  5.080e-004 	
         7.263	  8.660e-002 	             	
         7.295	             	  5.080e-004 	
         7.327	  8.660e-002 	             	
         7.360	             	  5.080e-004 	
         7.392	  8.660e-002 	             	
         7.423	             	  5.080e-004 	
         7.456	  8.660e-002 	             	
         7.519	  8.660e-002 	  5.080e-004 	
         7.584	  8.660e-002 	  5.080e-004 	
         7.647	             	  5.080e-004 	
         7.679	  8.660e-002 	             	
         7.711	             	  5.090e-004 	
         7.744	  8.660e-002 	             	
         7.775	             	  5.090e-004 	
         7.808	  8.660e-002 	             	
         7.839	             	  5.090e-004 	
         7.871	  8.660e-002 	             	
         7.903	             	  5.090e-004 	
         7.935	  8.660e-002 	             	
         7.967	             	  5.090e-004 	
         7.999	  8.660e-002 	             	
         8.032	             	  5.090e-004 	
         8.063	  8.660e-002 	             	
         8.095	             	  5.090e-004 	
         8.127	  8.660e-002 	             	
         8.159	             	  5.090e-004 	
         8.191	  8.660e-002 	             	
         8.224	             	  5.090e-004 	
         8.256	  8.660e-002 	             	
         8.319	  8.660e-002 	  5.090e-004 	
         8.384	  8.660e-002 	  5.100e-004 	
         8.448	             	  5.100e-004 	
         8.479	  8.660e-002 	             	
         8.511	             	  5.100e-004 	
         8.543	  8.660e-002 	             	
         8.575	             	  5.100e-004 	
         8.607	  8.670e-002 	             	
         8.639	             	  5.100e-004 	
         8.671	  8.670e-002 	             	
         8.704	             	  5.100e-004 	
         8.736	  8.670e-002 	             	
         8.768	             	  5.100e-004 	
         8.800	  8.660e-002 	             	
         8.831	             	  5.100e-004 	
         8.863	  8.660e-002 	             	
         8.895	             	  5.100e-004 	
         8.928	  8.660e-002 	             	
         8.960	             	  5.100e-004 	
         8.991	  8.660e-002 	             	
         9.023	             	  5.100e-004 	
         9.055	  8.660e-002 	             	
         9.120	  8.660e-002 	  5.100e-004 	
         9.183	  8.660e-002 	  5.100e-004 	
         9.248	             	  5.100e-004 	
         9.279	  8.660e-002 	             	
         9.312	             	  5.100e-004 	
         9.343	  8.660e-002 	             	
         9.376	             	  5.100e-004 	
         9.408	  8.660e-002 	             	
         9.439	             	  5.100e-004 	
         9.472	  8.660e-002 	             	
         9.503	             	  5.100e-004 	
         9.536	  8.660e-002 	             	
         9.567	             	  5.100e-004 	
         9.599	  8.660e-002 	             	
         9.631	             	  5.100e-004 	
         9.663	  8.660e-002 	             	
         9.695	             	  5.100e-004 	
         9.728	  8.660e-002 	             	
         9.760	             	  5.100e-004 	
         9.792	  8.660e-002 	             	
         9.824	             	  5.100e-004 	
         9.855	  8.660e-002 	             	
         9.920	  8.660e-002 	  5.100e-004 	
         9.983	  8.660e-002 	  5.100e-004 	
        10.047	             	  5.100e-004 	
        10.079	  8.660e-002 	             	
        10.111	             	  5.100e-004 	
        10.143	  8.660e-002 	             	
        10.176	             	  5.100e-004 	
        10.208	  8.660e-002 	             	
        10.239	             	  5.100e-004 	
        10.271	  8.660e-002 	             	
        10.303	             	  5.100e-004 	
        10.335	  8.660e-002 	             	
        10.368	             	  5.100e-004 	
        10.399	  8.660e-002 	             	
        10.431	             	  5.100e-004 	
        10.464	  8.660e-002 	             	
        10.495	             	  5.100e-004 	
        10.527	  8.660e-002 	             	
        10.559	             	  5.100e-004 	
        10.591	  8.660e-002 	             	
        10.623	             	  5.100e-004 	
        10.656	  8.660e-002 	             	
        10.719	  8.660e-002 	  5.110e-004 	
        10.783	  8.670e-002 	  5.110e-004 	
        10.847	             	  5.110e-004 	
        10.879	  8.660e-002 	             	
        10.912	             	  5.110e-004 	
        10.944	  8.660e-002 	             	
        10.976	             	  5.110e-004 	
        11.008	  8.660e-002 	             	
        11.039	             	  5.110e-004 	
        11.071	  8.660e-002 	             	
        11.104	             	  5.110e-004 	
        11.136	  8.670e-002 	             	
        11.167	             	  5.110e-004 	
        11.199	  8.670e-002 	             	
        11.232	             	  5.110e-004 	
        11.263	  8.670e-002 	             	
        11.295	             	  5.110e-004 	
        11.327	  8.670e-002 	             	
        11.359	             	  5.110e-004 	
        11.391	  8.670e-002 	             	
        11.424	             	  5.110e-004 	
        11.456	  8.670e-002 	             	
        11.519	  8.670e-002 	  5.110e-004 	
        11.583	  8.670e-002 	  5.110e-004 	
        11.647	             	  5.110e-004 	
        11.679	  8.670e-002 	             	
        11.711	             	  5.120e-004 	
        11.743	  8.670e-002 	             	
        11.775	             	  5.120e-004 	
        11.807	  8.670e-002 	             	
        11.840	             	  5.120e-004 	
        11.872	  8.670e-002 	             	
        11.903	             	  5.120e-004 	
        11.935	  8.670e-002 	             	
        11.967	             	  5.120e-004 	
        12.000	  8.670e-002 	             	
        12.031	             	  5.110e-004 	
        12.063	  8.670e-002 	             	
        12.095	             	  5.110e-004 	
        12.127	  8.670e-002 	             	
        12.160	             	  5.110e-004 	
        12.191	  8.670e-002 	             	
        12.224	             	  5.110e-004 	
        12.255	  8.670e-002 	             	
        12.319	  8.670e-002 	  5.110e-004 	
        12.384	  8.670e-002 	  5.120e-004 	
        12.447	             	  5.120e-004 	
        12.479	  8.670e-002 	             	
        12.511	             	  5.120e-004 	
        12.543	  8.670e-002 	             	
        12.576	             	  5.120e-004 	
        12.607	  8.670e-002 	             	
        12.640	             	  5.120e-004 	
        12.671	  8.670e-002 	             	
        12.704	             	  5.120e-004 	
        12.735	  8.660e-002 	             	
        12.768	             	  5.120e-004 	
        12.799	  8.660e-002 	             	
        12.832	             	  5.120e-004 	
        12.863	  8.660e-002 	             	
        12.895	             	  5.110e-004 	
        12.927	  8.660e-002 	             	
        12.959	             	  5.110e-004 	
        12.992	  8.660e-002 	             	
        13.023	             	  5.110e-004 	
        13.056	  8.660e-002 	             	
        13.087	             	  5.110e-004 	
        13.119	  8.660e-002 	             	
        13.183	  8.650e-002 	  5.110e-004 	
        13.247	             	  5.110e-004 	
        13.279	  8.650e-002 	             	
        13.311	             	  5.110e-004 	
        13.344	  8.650e-002 	             	
        13.375	             	  5.110e-004 	
        13.408	  8.650e-002 	             	
        13.439	             	  5.110e-004 	
        13.471	  8.650e-002 	             	
        13.504	             	  5.110e-004 	
        13.536	  8.660e-002 	             	
        13.568	             	  5.110e-004 	
        13.599	  8.660e-002 	             	
        13.631	             	  5.110e-004 	
        13.663	  8.660e-002 	             	
        13.696	             	  5.110e-004 	
        13.727	  8.660e-002 	             	
        13.760	             	  5.110e-004 	
        13.791	  8.660e-002 	             	
        13.823	             	  5.110e-004 	
        13.856	  8.660e-002 	             	
        13.919	  8.670e-002 	  5.110e-004 	
        13.983	  8.670e-002 	  5.110e-004 	
        14.047	             	  5.110e-004 	
        14.079	  8.670e-002 	             	
        14.111	             	  5.110e-004 	
        14.143	  8.670e-002 	             	
        14.175	             	  5.110e-004 	
        14.207	  8.670e-002 	             	
        14.239	             	  5.110e-004 	
        14.271	  8.670e-002 	             	
        14.303	             	  5.110e-004 	
        14.336	  8.670e-002 	             	
        14.367	             	  5.110e-004 	
        14.399	  8.670e-002 	             	
        14.431	             	  5.110e-004 	
        14.464	  8.670e-002 	             	
        14.495	             	  5.110e-004 	
        14.527	  8.670e-002 	             	
        14.559	             	  5.110e-004 	
        14.591	  8.670e-002 	             	
        14.623	             	  5.110e-004 	
        14.655	  8.670e-002 	             	
        14.688	             	  5.110e-004 	
        14.719	  8.670e-002 	             	
        14.783	  8.670e-002 	  5.110e-004 	
        14.847	             	  5.110e-004 	
        14.879	  8.670e-002 	             	
        14.911	             	  5.110e-004 	
        14.943	  8.660e-002 	             	
        14.976	             	  5.110e-004 	
        15.008	  8.660e-002 	             	
        15.040	             	  5.110e-004 	
        15.072	  8.660e-002 	             	
        15.103	             	  5.110e-004 	
        15.136	  8.660e-002 	             	
        15.167	             	  5.100e-004 	
        15.199	  8.660e-002 	             	
        15.231	             	  5.100e-004 	
        15.264	  8.660e-002 	             	
        15.295	             	  5.100e-004 	
        15.327	  8.660e-002 	             	
        15.360	             	  5.110e-004 	
        15.391	  8.660e-002 	             	
        15.423	             	  5.110e-004 	
        15.455	  8.660e-002 	             	
        15.487	             	  5.110e-004 	
        15.520	  8.660e-002 	             	
        15.584	  8.660e-002 	  5.110e-004 	
        15.647	  8.670e-002 	  5.110e-004 	
        15.711	             	  5.110e-004 	
        15.743	  8.660e-002 	             	
        15.776	             	  5.110e-004 	
        15.807	  8.660e-002 	             	
        15.839	             	  5.100e-004 	
        15.871	  8.660e-002 	             	
        15.903	             	  5.100e-004 	
        15.936	  8.670e-002 	             	
        15.967	             	  5.100e-004 	
        15.999	  8.670e-002 	             	
        16.031	             	  5.110e-004 	
        16.064	  8.670e-002 	             	
        16.095	             	  5.110e-004 	
        16.127	  8.670e-002 	             	
        16.159	             	  5.110e-004 	
        16.191	  8.670e-002 	             	
        16.224	             	  5.110e-004 	
        16.255	  8.670e-002 	             	
        16.287	             	  5.110e-004 	
        16.319	  8.670e-002 	             	
        16.383	  8.670e-002 	  5.110e-004 	
        16.448	  8.670e-002 	  5.110e-004 	
        16.511	             	  5.110e-004 	
        16.543	  8.670e-002 	             	
        16.575	             	  5.110e-004 	
        16.607	  8.670e-002 	             	
        16.639	             	  5.110e-004 	
        16.672	  8.670e-002 	             	
        16.704	             	  5.110e-004 	
        16.735	  8.670e-002 	             	
        16.767	             	  5.110e-004 	
        16.799	  8.670e-002 	             	
        16.831	             	  5.110e-004 	
        16.863	  8.670e-002 	             	
        16.895	             	  5.110e-004 	
        16.928	  8.670e-002 	             	
        16.959	             	  5.110e-004 	
        16.991	  8.670e-002 	             	
        17.024	             	  5.110e-004 	
        17.055	  8.670e-002 	             	
        17.087	             	  5.110e-004 	
        17.119	  8.670e-002 	             	
        17.184	  8.670e-002 	  5.100e-004 	
        17.247	  8.670e-002 	  5.100e-004 	
        17.311	             	  5.100e-004 	
        17.343	  8.670e-002 	             	
        17.375	             	  5.100e-004 	
        17.407	  8.670e-002 	             	
        17.439	             	  5.090e-004 	
        17.471	  8.670e-002 	             	
        17.503	             	  5.090e-004 	
        17.536	  8.670e-002 	             	
        17.567	             	  5.080e-004 	
        17.599	  8.670e-002 	             	
        17.631	             	  5.080e-004 	
        17.663	  8.680e-002 	             	
        17.696	             	  5.080e-004 	
        17.727	  8.680e-002 	             	
        17.759	             	  5.070e-004 	
        17.791	  8.680e-002 	             	
        17.824	             	  5.070e-004 	
        17.856	  8.680e-002 	             	
        17.888	             	  5.070e-004 	
        17.919	  8.680e-002 	             	
        17.983	  8.680e-002 	  5.060e-004 	
        18.048	  8.680e-002 	  5.060e-004 	
        18.111	             	  5.070e-004 	
        18.144	  8.680e-002 	             	
        18.175	             	  5.070e-004 	
        18.207	  8.680e-002 	             	
        18.239	             	  5.070e-004 	
        18.271	  8.680e-002 	             	
        18.303	             	  5.070e-004 	
        18.335	  8.680e-002 	             	
        18.367	             	  5.070e-004 	
        18.399	  8.680e-002 	             	
        18.431	             	  5.080e-004 	
        18.463	  8.680e-002 	             	
        18.495	             	  5.080e-004 	
        18.527	  8.680e-002 	             	
        18.560	             	  5.080e-004 	
        18.591	  8.680e-002 	             	
        18.623	             	  5.080e-004 	
        18.656	  8.680e-002 	             	
        18.688	             	  5.090e-004 	
        18.720	  8.680e-002 	             	
        18.783	  8.680e-002 	  5.090e-004 	
        18.847	  8.680e-002 	  5.090e-004 	
        18.911	             	  5.090e-004 	
        18.943	  8.680e-002 	             	
        18.975	             	  5.090e-004 	
        19.008	  8.680e-002 	             	
        19.040	             	  5.100e-004 	
        19.071	  8.670e-002 	             	
        19.104	             	  5.100e-004 	
        19.135	  8.670e-002 	             	
        19.167	             	  5.100e-004 	
        19.200	  8.670e-002 	             	
        19.231	             	  5.100e-004 	
        19.263	  8.670e-002 	             	
        19.295	             	  5.100e-004 	
        19.327	  8.670e-002 	             	
        19.359	             	  5.100e-004 	
        19.391	  8.670e-002 	             	
        19.423	             	  5.100e-004 	
        19.455	  8.680e-002 	             	
        19.487	             	  5.110e-004 	
        19.520	  8.680e-002 	             	
        19.583	  8.680e-002 	  5.110e-004 	
        19.648	  8.680e-002 	  5.110e-004 	
        19.712	             	  5.110e-004 	
        19.743	  8.680e-002 	             	
        19.776	             	  5.110e-004 	
        19.807	  8.680e-002 	             	
        19.840	             	  5.110e-004 	
        19.872	  8.680e-002 	             	
        19.904	             	  5.110e-004 	
        19.936	  8.680e-002 	             	
        19.968	             	  5.110e-004 	
        20.000	  8.680e-002 	             	
        20.031	             	  5.110e-004 	
        20.063	  8.680e-002 	             	
        20.095	             	  5.110e-004 	
        20.128	  8.680e-002 	             	
        20.160	             	  5.120e-004 	
        20.191	  8.680e-002 	             	
        20.223	             	  5.120e-004 	
        20.256	  8.680e-002 	             	
        20.287	             	  5.120e-004 	
        20.319	  8.680e-002 	             	
        20.384	  8.680e-002 	  5.120e-004 	
        20.447	  8.680e-002 	  5.120e-004 	
        20.511	             	  5.120e-004 	
        20.543	  8.680e-002 	             	
        20.575	             	  5.130e-004 	
        20.607	  8.680e-002 	             	
        20.639	             	  5.130e-004 	
        20.672	  8.680e-002 	             	
        20.703	             	  5.130e-004 	
        20.735	  8.680e-002 	             	
        20.767	             	  5.130e-004 	
        20.800	  8.680e-002 	             	
        20.831	             	  5.130e-004 	
        20.864	  8.680e-002 	             	
        20.895	             	  5.140e-004 	
        20.927	  8.680e-002 	             	
        20.959	             	  5.140e-004 	
        20.991	  8.680e-002 	             	
        21.023	             	  5.140e-004 	
        21.056	  8.680e-002 	             	
        21.087	             	  5.140e-004 	
        21.119	  8.680e-002 	             	
        21.183	  8.680e-002 	  5.140e-004 	
        21.247	  8.680e-002 	  5.140e-004 	
        21.311	             	  5.140e-004 	
        21.343	  8.680e-002 	             	
        21.375	             	  5.150e-004 	
        21.407	  8.680e-002 	             	
        21.439	             	  5.150e-004 	
        21.471	  8.680e-002 	             	
        21.504	             	  5.150e-004 	
        21.535	  8.680e-002 	             	
        21.567	             	  5.150e-004 	
        21.600	  8.680e-002 	             	
        21.631	             	  5.160e-004 	
        21.664	  8.680e-002 	             	
        21.695	             	  5.160e-004 	
        21.727	  8.680e-002 	             	
        21.760	             	  5.160e-004 	
        21.792	  8.680e-002 	             	
        21.824	             	  5.160e-004 	
        21.855	  8.680e-002 	             	
        21.887	             	  5.170e-004 	
        21.920	  8.680e-002 	             	
        21.983	  8.680e-002 	  5.170e-004 	
        22.047	  8.680e-002 	  5.170e-004 	
        22.111	             	  5.170e-004 	
        22.143	  8.680e-002 	             	
        22.175	             	  5.170e-004 	
        22.207	  8.680e-002 	             	
        22.239	             	  5.180e-004 	
        22.271	  8.680e-002 	             	
        22.304	             	  5.180e-004 	
        22.335	  8.670e-002 	             	
        22.367	             	  5.180e-004 	
        22.400	  8.670e-002 	             	
        22.431	             	  5.170e-004 	
        22.463	  8.670e-002 	             	
        22.495	             	  5.170e-004 	
        22.527	  8.670e-002 	             	
        22.559	             	  5.170e-004 	
        22.592	  8.670e-002 	             	
        22.623	             	  5.170e-004 	
        22.655	  8.670e-002 	             	
        22.688	             	  5.170e-004 	
        22.720	  8.670e-002 	             	
        22.784	  8.670e-002 	  5.170e-004 	
        22.848	  8.670e-002 	  5.170e-004 	
        22.912	             	  5.170e-004 	
        22.944	  8.670e-002 	             	
        22.975	             	  5.180e-004 	
        23.007	  8.670e-002 	             	
        23.040	             	  5.180e-004 	
        23.071	  8.670e-002 	             	
        23.103	             	  5.180e-004 	
        23.135	  8.670e-002 	             	
        23.168	             	  5.180e-004 	
        23.199	  8.670e-002 	             	
        23.231	             	  5.180e-004 	
        23.264	  8.670e-002 	             	
        23.295	             	  5.180e-004 	
        23.327	  8.670e-002 	             	
        23.360	             	  5.180e-004 	
        23.391	  8.670e-002 	             	
        23.423	             	  5.180e-004 	
        23.455	  8.670e-002 	             	
        23.488	             	  5.190e-004 	
        23.519	  8.670e-002 	             	
        23.583	  8.670e-002 	  5.190e-004 	
        23.647	  8.670e-002 	  5.190e-004 	
        23.711	             	  5.190e-004 	
        23.743	  8.670e-002 	             	
        23.775	             	  5.190e-004 	
        23.807	  8.670e-002 	             	
        23.839	             	  5.190e-004 	
        23.872	  8.670e-002 	             	
        23.903	             	  5.190e-004 	
        23.936	  8.670e-002 	             	
        23.968	             	  5.190e-004 	
        23.999	  8.670e-002 	             	
        24.032	             	  5.190e-004 	
        24.063	  8.670e-002 	             	
        24.095	             	  5.190e-004 	
        24.127	  8.670e-002 	             	
        24.159	             	  5.190e-004 	
        24.192	  8.670e-002 	             	
        24.223	             	  5.200e-004 	
        24.256	  8.670e-002 	             	
        24.287	             	  5.200e-004 	
        24.319	  8.670e-002 	             	
        24.383	  8.670e-002 	  5.200e-004 	
        24.448	  8.670e-002 	  5.200e-004 	
        24.511	             	  5.200e-004 	
        24.544	  8.670e-002 	             	
        24.575	             	  5.200e-004 	
        24.607	  8.670e-002 	             	
        24.639	             	  5.200e-004 	
        24.672	  8.670e-002 	             	
        24.703	             	  5.200e-004 	
        24.736	  8.670e-002 	             	
        24.767	             	  5.200e-004 	
        24.799	  8.670e-002 	             	
        24.831	             	  5.210e-004 	
        24.863	  8.670e-002 	             	
        24.895	             	  5.210e-004 	
        24.927	  8.670e-002 	             	
        24.959	             	  5.210e-004 	
        24.991	  8.670e-002 	             	
        25.024	             	  5.210e-004 	
        25.055	  8.670e-002 	             	
        25.088	             	  5.210e-004 	
        25.119	  8.670e-002 	             	
        25.183	  8.670e-002 	  5.210e-004 	
        25.247	  8.670e-002 	  5.210e-004 	
        25.311	             	  5.220e-004 	
        25.344	  8.670e-002 	             	
        25.375	             	  5.220e-004 	
        25.407	  8.670e-002 	             	
        25.439	             	  5.220e-004 	
        25.472	  8.680e-002 	             	
        25.504	             	  5.220e-004 	
        25.535	  8.680e-002 	             	
        25.568	             	  5.220e-004 	
        25.599	  8.680e-002 	             	
        25.631	             	  5.220e-004 	
        25.663	  8.680e-002 	             	
        25.696	             	  5.220e-004 	
        25.727	  8.680e-002 	             	
        25.759	             	  5.220e-004 	
        25.791	  8.680e-002 	             	
        25.823	             	  5.220e-004 	
        25.855	  8.680e-002 	             	
        25.888	             	  5.220e-004 	
        25.919	  8.680e-002 	             	
        25.984	  8.670e-002 	  5.220e-004 	
        26.047	  8.670e-002 	  5.220e-004 	
        26.111	             	  5.220e-004 	
        26.143	  8.670e-002 	             	
        26.175	             	  5.220e-004 	
        26.207	  8.670e-002 	             	
        26.239	             	  5.220e-004 	
        26.271	  8.680e-002 	             	
        26.303	             	  5.220e-004 	
        26.335	  8.680e-002 	             	
        26.367	             	  5.220e-004 	
        26.400	  8.680e-002 	             	
        26.431	             	  5.220e-004 	
        26.463	  8.680e-002 	             	
        26.496	             	  5.220e-004 	
        26.527	  8.680e-002 	             	
        26.559	             	  5.220e-004 	
        26.591	  8.680e-002 	             	
        26.623	             	  5.230e-004 	
        26.655	  8.690e-002 	             	
        26.687	             	  5.230e-004 	
        26.720	  8.690e-002 	             	
        26.751	             	  5.230e-004 	
        26.784	  8.690e-002 	             	
        26.848	  8.690e-002 	  5.230e-004 	
        26.911	             	  5.230e-004 	
        26.943	  8.680e-002 	             	
        26.976	             	  5.230e-004 	
        27.007	  8.680e-002 	             	
        27.039	             	  5.230e-004 	
        27.071	  8.680e-002 	             	
        27.103	             	  5.230e-004 	
        27.135	  8.680e-002 	             	
        27.167	             	  5.230e-004 	
        27.199	  8.680e-002 	             	
        27.231	             	  5.230e-004 	
        27.263	  8.680e-002 	             	
        27.295	             	  5.230e-004 	
        27.327	  8.680e-002 	             	
        27.359	             	  5.230e-004 	
        27.391	  8.680e-002 	             	
        27.423	             	  5.230e-004 	
        27.456	  8.680e-002 	             	
        27.487	             	  5.230e-004 	
        27.519	  8.680e-002 	             	
        27.551	             	  5.230e-004 	
        27.583	  8.670e-002 	             	
        27.647	  8.670e-002 	  5.230e-004 	
        27.711	  8.680e-002 	  5.230e-004 	
        27.775	             	  5.230e-004 	
        27.807	  8.680e-002 	             	
        27.840	             	  5.230e-004 	
        27.871	  8.680e-002 	             	
        27.903	             	  5.230e-004 	
        27.935	  8.680e-002 	             	
        27.968	             	  5.230e-004 	
        27.999	  8.680e-002 	             	
        28.031	             	  5.230e-004 	
        28.063	  8.680e-002 	             	
        28.096	             	  5.230e-004 	
        28.127	  8.680e-002 	             	
        28.159	             	  5.230e-004 	
        28.191	  8.680e-002 	             	
        28.223	             	  5.230e-004 	
        28.255	  8.680e-002 	             	
        28.287	             	  5.230e-004 	
        28.320	  8.690e-002 	             	
        28.351	             	  5.230e-004 	
        28.384	  8.690e-002 	             	
        28.447	  8.690e-002 	  5.230e-004 	
        28.512	  8.690e-002 	  5.240e-004 	
        28.575	             	  5.240e-004 	
        28.608	  8.690e-002 	             	
        28.639	             	  5.240e-004 	
        28.671	  8.690e-002 	             	
        28.704	             	  5.240e-004 	
        28.735	  8.690e-002 	             	
        28.767	             	  5.240e-004 	
        28.799	  8.690e-002 	             	
        28.831	             	  5.240e-004 	
        28.863	  8.690e-002 	             	
        28.895	             	  5.240e-004 	
        28.927	  8.690e-002 	             	
        28.959	             	  5.250e-004 	
        28.992	  8.690e-002 	             	
        29.023	             	  5.250e-004 	
        29.055	  8.690e-002 	             	
        29.088	             	  5.250e-004 	
        29.119	  8.680e-002 	             	
        29.151	             	  5.240e-004 	
        29.183	  8.680e-002 	             	
        29.247	  8.680e-002 	  5.240e-004 	
        29.311	  8.680e-002 	  5.240e-004 	
        29.375	             	  5.240e-004 	
        29.408	  8.680e-002 	             	
        29.439	             	  5.240e-004 	
        29.472	  8.680e-002 	             	
        29.503	             	  5.240e-004 	
        29.535	  8.680e-002 	             	
        29.568	             	  5.240e-004 	
        29.600	  8.680e-002 	             	
        29.631	             	  5.240e-004 	
        29.663	  8.680e-002 	             	
        29.695	             	  5.250e-004 	
        29.728	  8.680e-002 	             	
        29.759	             	  5.250e-004 	
        29.791	  8.680e-002 	             	
        29.824	             	  5.250e-004 	
        29.855	  8.680e-002 	             	
        29.887	             	  5.250e-004 	
        29.920	  8.680e-002 	             	
        29.951	             	  5.250e-004 	
        29.984	  8.680e-002 	             	
        30.048	  8.680e-002 	  5.250e-004 	
        30.111	  8.680e-002 	  5.250e-004 	
        30.176	             	  5.250e-004 	
        30.207	  8.680e-002 	             	
        30.240	             	  5.250e-004 	
        30.272	  8.680e-002 	             	
        30.303	             	  5.250e-004 	
        30.335	  8.680e-002 	             	
        30.368	             	  5.250e-004 	
        30.399	  8.680e-002 	             	
        30.431	             	  5.250e-004 	
        30.463	  8.680e-002 	             	
        30.495	             	  5.250e-004 	
        30.527	  8.680e-002 	             	
        30.559	             	  5.250e-004 	
        30.591	  8.680e-002 	             	
        30.623	             	  5.250e-004 	
        30.655	  8.680e-002 	             	
        30.687	             	  5.250e-004 	
        30.719	  8.680e-002 	             	
        30.751	             	  5.250e-004 	
        30.784	  8.680e-002 	             	
        30.847	  8.680e-002 	  5.250e-004 	
        30.911	  8.680e-002 	  5.250e-004 	
        30.975	             	  5.250e-004 	
        31.008	  8.680e-002 	             	
        31.039	             	  5.250e-004 	
        31.071	  8.680e-002 	             	
        31.104	             	  5.250e-004 	
        31.135	  8.680e-002 	             	
        31.168	             	  5.250e-004 	
        31.200	  8.680e-002 	             	
        31.231	             	  5.250e-004 	
        31.263	  8.680e-002 	             	
        31.296	             	  5.250e-004 	
        31.327	  8.680e-002 	             	
        31.359	             	  5.250e-004 	
        31.392	  8.680e-002 	             	
        31.424	             	  5.250e-004 	
        31.455	  8.680e-002 	             	
        31.487	             	  5.250e-004 	
        31.519	  8.680e-002 	             	
        31.552	             	  5.250e-004 	
        31.584	  8.680e-002 	             	
        31.647	  8.680e-002 	  5.250e-004 	
        31.711	  8.680e-002 	  5.250e-004 	
        31.775	             	  5.250e-004 	
        31.807	  8.670e-002 	             	
        31.839	             	  5.240e-004 	
        31.872	  8.670e-002 	             	
        31.904	             	  5.240e-004 	
        31.935	  8.670e-002 	             	
        31.968	             	  5.240e-004 	
        32.000	  8.670e-002 	             	
        32.031	             	  5.240e-004 	
        32.063	  8.670e-002 	             	
        32.095	             	  5.240e-004 	
        32.127	  8.670e-002 	             	
        32.160	             	  5.240e-004 	
        32.192	  8.670e-002 	             	
        32.223	             	  5.240e-004 	
        32.255	  8.670e-002 	             	
        32.288	             	  5.240e-004 	
        32.319	  8.670e-002 	             	
        32.351	             	  5.240e-004 	
        32.384	  8.670e-002 	             	
        32.447	  8.670e-002 	  5.240e-004 	
        32.512	  8.670e-002 	  5.240e-004 	
        32.575	             	  5.240e-004 	
        32.607	  8.670e-002 	             	
        32.639	             	  5.240e-004 	
        32.672	  8.670e-002 	             	
        32.703	             	  5.240e-004 	
        32.736	  8.670e-002 	             	
        32.768	             	  5.240e-004 	
        32.800	  8.670e-002 	             	
        32.831	             	  5.240e-004 	
        32.863	  8.670e-002 	             	
        32.895	             	  5.240e-004 	
        32.927	  8.670e-002 	             	
        32.960	             	  5.240e-004 	
        32.992	  8.670e-002 	             	
        33.024	             	  5.240e-004 	
        33.055	  8.660e-002 	             	
        33.087	             	  5.240e-004 	
        33.119	  8.660e-002 	             	
        33.151	             	  5.240e-004 	
        33.184	  8.660e-002 	             	
        33.247	  8.660e-002 	  5.240e-004 	
        33.311	  8.660e-002 	  5.240e-004 	
        33.375	             	  5.240e-004 	
        33.407	  8.660e-002 	             	
        33.439	             	  5.240e-004 	
        33.471	  8.660e-002 	             	
        33.504	             	  5.240e-004 	
        33.535	  8.650e-002 	             	
        33.567	             	  5.240e-004 	
        33.599	  8.650e-002 	             	
        33.631	             	  5.240e-004 	
        33.664	  8.650e-002 	             	
        33.695	             	  5.250e-004 	
        33.728	  8.660e-002 	             	
        33.759	             	  5.250e-004 	
        33.791	  8.660e-002 	             	
        33.824	             	  5.250e-004 	
        33.856	  8.660e-002 	             	
        33.887	             	  5.250e-004 	
        33.919	  8.660e-002 	             	
        33.952	             	  5.250e-004 	
        33.984	  8.660e-002 	             	
        34.047	  8.660e-002 	  5.250e-004 	
        34.112	  8.660e-002 	  5.250e-004 	
        34.175	             	  5.260e-004 	
        34.207	  8.660e-002 	             	
        34.240	             	  5.260e-004 	
        34.272	  8.660e-002 	             	
        34.304	             	  5.260e-004 	
        34.335	  8.660e-002 	             	
        34.367	             	  5.260e-004 	
        34.399	  8.660e-002 	             	
        34.432	             	  5.260e-004 	
        34.463	  8.660e-002 	             	
        34.495	             	  5.260e-004 	
        34.528	  8.660e-002 	             	
        34.559	             	  5.260e-004 	
        34.592	  8.660e-002 	             	
        34.623	             	  5.260e-004 	
        34.655	  8.670e-002 	             	
        34.687	             	  5.260e-004 	
        34.719	  8.670e-002 	             	
        34.751	             	  5.260e-004 	
        34.783	  8.670e-002 	             	
        34.847	  8.670e-002 	  5.270e-004 	
        34.911	  8.670e-002 	  5.270e-004 	
        34.975	             	  5.270e-004 	
        35.007	  8.680e-002 	             	
        35.039	             	  5.270e-004 	
        35.071	  8.680e-002 	             	
        35.103	             	  5.270e-004 	
        35.135	  8.680e-002 	             	
        35.167	             	  5.270e-004 	
        35.200	  8.680e-002 	             	
        35.232	             	  5.270e-004 	
        35.264	  8.680e-002 	             	
        35.296	             	  5.280e-004 	
        35.327	  8.680e-002 	             	
        35.359	             	  5.280e-004 	
        35.391	  8.680e-002 	             	
        35.423	             	  5.280e-004 	
        35.456	  8.680e-002 	             	
        35.488	             	  5.280e-004 	
        35.519	  8.680e-002 	             	
        35.551	             	  5.280e-004 	
        35.583	  8.680e-002 	             	
        35.648	  8.680e-002 	  5.280e-004 	
        35.711	  8.680e-002 	  5.280e-004 	
        35.775	             	  5.280e-004 	
        35.807	  8.680e-002 	             	
        35.839	             	  5.280e-004 	
        35.871	  8.680e-002 	             	
        35.903	             	  5.280e-004 	
        35.936	  8.680e-002 	             	
        35.967	             	  5.280e-004 	
        35.999	  8.680e-002 	             	
        36.032	             	  5.280e-004 	
        36.063	  8.680e-002 	             	
        36.095	             	  5.280e-004 	
        36.128	  8.680e-002 	             	
        36.159	             	  5.280e-004 	
        36.191	  8.680e-002 	             	
        36.223	             	  5.280e-004 	
        36.255	  8.680e-002 	             	
        36.287	             	  5.280e-004 	
        36.319	  8.680e-002 	             	
        36.351	             	  5.280e-004 	
        36.384	  8.670e-002 	             	
        36.448	  8.670e-002 	  5.280e-004 	
        36.511	  8.670e-002 	  5.280e-004 	
        36.575	             	  5.280e-004 	
        36.608	  8.670e-002 	             	
        36.639	             	  5.280e-004 	
        36.671	  8.670e-002 	             	
        36.703	             	  5.280e-004 	
        36.735	  8.670e-002 	             	
        36.767	             	  5.280e-004 	
        36.799	  8.670e-002 	             	
        36.831	             	  5.280e-004 	
        36.863	  8.670e-002 	             	
        36.896	             	  5.280e-004 	
        36.928	  8.670e-002 	             	
        36.959	             	  5.280e-004 	
        36.991	  8.670e-002 	             	
        37.023	             	  5.280e-004 	
        37.056	  8.670e-002 	             	
        37.087	             	  5.280e-004 	
        37.119	  8.670e-002 	             	
        37.152	             	  5.280e-004 	
        37.183	  8.670e-002 	             	
        37.247	  8.670e-002 	  5.280e-004 	
        37.312	  8.670e-002 	  5.280e-004 	
        37.375	             	  5.280e-004 	
        37.408	  8.670e-002 	             	
        37.440	             	  5.280e-004 	
        37.472	  8.670e-002 	             	
        37.503	             	  5.280e-004 	
        37.535	  8.670e-002 	             	
        37.567	             	  5.280e-004 	
        37.599	  8.660e-002 	             	
        37.631	             	  5.280e-004 	
        37.663	  8.660e-002 	             	
        37.695	             	  5.280e-004 	
        37.727	  8.660e-002 	             	
        37.760	             	  5.280e-004 	
        37.791	  8.660e-002 	             	
        37.824	             	  5.290e-004 	
        37.855	  8.660e-002 	             	
        37.887	             	  5.290e-004 	
        37.919	  8.660e-002 	             	
        37.951	             	  5.290e-004 	
        37.983	  8.660e-002 	             	
        38.048	  8.660e-002 	  5.290e-004 	
        38.111	  8.660e-002 	  5.290e-004 	
        38.175	             	  5.290e-004 	
        38.207	  8.660e-002 	             	
        38.239	             	  5.290e-004 	
        38.271	  8.660e-002 	             	
        38.303	             	  5.290e-004 	
        38.335	  8.660e-002 	             	
        38.367	             	  5.280e-004 	
        38.399	  8.660e-002 	             	
        38.432	             	  5.280e-004 	
        38.464	  8.660e-002 	             	
        38.495	             	  5.280e-004 	
        38.527	  8.660e-002 	             	
        38.560	             	  5.290e-004 	
        38.591	  8.660e-002 	             	
        38.623	             	  5.290e-004 	
        38.656	  8.660e-002 	             	
        38.688	             	  5.290e-004 	
        38.720	  8.660e-002 	             	
        38.751	             	  5.290e-004 	
        38.783	  8.660e-002 	             	
        38.848	  8.650e-002 	  5.290e-004 	
        38.911	  8.650e-002 	  5.290e-004 	
        38.976	             	  5.290e-004 	
        39.007	  8.650e-002 	             	
        39.039	             	  5.290e-004 	
        39.071	  8.650e-002 	             	
        39.103	             	  5.290e-004 	
        39.136	  8.650e-002 	             	
        39.167	             	  5.300e-004 	
        39.200	  8.650e-002 	             	
        39.231	             	  5.300e-004 	
        39.264	  8.650e-002 	             	
        39.295	             	  5.300e-004 	
        39.327	  8.650e-002 	             	
        39.359	             	  5.300e-004 	
        39.391	  8.650e-002 	             	
        39.423	             	  5.300e-004 	
        39.455	  8.650e-002 	             	
        39.487	             	  5.300e-004 	
        39.520	  8.650e-002 	             	
        39.551	             	  5.300e-004 	
        39.583	  8.650e-002 	             	
        39.616	             	  5.300e-004 	
        39.647	  8.650e-002 	             	
        39.712	  8.650e-002 	  5.300e-004 	
        39.775	             	  5.300e-004 	
        39.807	  8.650e-002 	             	
        39.839	             	  5.300e-004 	
        39.871	  8.650e-002 	             	
        39.903	             	  5.300e-004 	
        39.936	  8.650e-002 	             	
        39.967	             	  5.300e-004 	
        39.999	  8.650e-002 	             	
        40.031	             	  5.300e-004 	
        40.064	  8.650e-002 	             	
        40.096	             	  5.300e-004 	
        40.127	  8.650e-002 	             	
        40.159	             	  5.300e-004 	
        40.191	  8.650e-002 	             	
        40.223	             	  5.300e-004 	
        40.255	  8.650e-002 	             	
        40.287	             	  5.300e-004 	
        40.319	  8.650e-002 	             	
        40.351	             	  5.300e-004 	
        40.384	  8.660e-002 	             	
        40.415	             	  5.300e-004 	
        40.448	  8.660e-002 	             	
        40.512	  8.660e-002 	  5.300e-004 	
        40.575	  8.660e-002 	  5.300e-004 	
        40.640	             	  5.300e-004 	
        40.671	  8.660e-002 	             	
        40.703	             	  5.300e-004 	
        40.736	  8.660e-002 	             	
        40.767	             	  5.300e-004 	
        40.799	  8.660e-002 	             	
        40.832	             	  5.300e-004 	
        40.863	  8.660e-002 	             	
        40.896	             	  5.300e-004 	
        40.927	  8.660e-002 	             	
        40.960	             	  5.300e-004 	
        40.992	  8.660e-002 	             	
        41.023	             	  5.300e-004 	
        41.055	  8.660e-002 	             	
        41.087	             	  5.300e-004 	
        41.119	  8.660e-002 	             	
        41.151	             	  5.300e-004 	
        41.183	  8.660e-002 	             	
        41.216	             	  5.300e-004 	
        41.248	  8.660e-002 	             	
        41.311	  8.660e-002 	  5.300e-004 	
        41.375	             	  5.300e-004 	
        41.407	  8.660e-002 	             	
        41.439	             	  5.300e-004 	
        41.471	  8.660e-002 	             	
        41.503	             	  5.300e-004 	
        41.535	  8.660e-002 	             	
        41.567	             	  5.300e-004 	
        41.599	  8.660e-002 	             	
        41.631	             	  5.300e-004 	
        41.664	  8.660e-002 	             	
        41.695	             	  5.300e-004 	
        41.727	  8.660e-002 	             	
        41.760	             	  5.300e-004 	
        41.792	  8.660e-002 	             	
        41.823	             	  5.300e-004 	
        41.855	  8.660e-002 	             	
        41.888	             	  5.300e-004 	
        41.919	  8.660e-002 	             	
        41.951	             	  5.300e-004 	
        41.983	  8.660e-002 	             	
        42.016	             	  5.310e-004 	
        42.047	  8.660e-002 	             	
        42.111	  8.670e-002 	  5.310e-004 	
        42.175	  8.670e-002 	  5.310e-004 	
        42.240	             	  5.310e-004 	
        42.271	  8.670e-002 	             	
        42.303	             	  5.310e-004 	
        42.335	  8.670e-002 	             	
        42.367	             	  5.310e-004 	
        42.399	  8.670e-002 	             	
