;PC Software:StarLab Version 3.30 Build 10
! ******* Warning: Do not modify this file. Changes may prevent   ********
! ******* the StarLab Log reader from opening the file correctly. ********
;Logged:19/03/2021 at 14:42:37
;File Version:5
;Time Resolution:1 microseconds
;Log Settings:Stop after:period: 00:05:00
;Graph Mode:Split
;Notes:                                                            

;Channel A:Vega Thermopile 3A (s/n:940606)  VG2.52 (s/n:946462)
;Channel B:Vega Thermopile 3A (s/n:947746)  VG2.52 (s/n:946463)

;Channel A:Details
;Name:3A
;Graph Type:Line
;Graph Color:RGB(14,104,168)
;Units:W
;Settings:Measuring:Power
;Settings:Wavelength:532
;Settings:Range:AUTO

;Channel B:Details
;Name:3A
;Graph Type:Line
;Graph Color:RGB(245,86,16)
;Units:W
;Settings:Measuring:Power
;Settings:Wavelength:532
;Settings:Range:AUTO

;Channel A:Statistics
;Min:79.80mW             
;Max:80.20mW             
;Average:80.03mW             
;Std.Dev.:79.60uW             
;Overrange:0                   

;Channel B:Statistics
;Min:790.0uW             
;Max:1.383mW             
;Average:1.041mW             
;Std.Dev.:135.9uW             
;Overrange:0                   
;--------------------


;First Pulse Arrived : 19/03/2021 at 14:42:37.701000
  Timestamp   	  Channel A  	  Channel B  	
         0.000	  7.990e-002 	  1.383e-003 	
         0.064	  7.990e-002 	  1.349e-003 	
         0.128	  7.990e-002 	  1.317e-003 	
         0.192	  7.990e-002 	  1.287e-003 	
         0.257	  7.990e-002 	  1.260e-003 	
         0.320	  7.990e-002 	  1.235e-003 	
         0.384	  7.990e-002 	  1.212e-003 	
         0.448	             	  1.192e-003 	
         0.480	  7.990e-002 	             	
         0.512	             	  1.175e-003 	
         0.544	  7.990e-002 	             	
         0.576	             	  1.159e-003 	
         0.608	  8.000e-002 	             	
         0.672	  8.000e-002 	  1.146e-003 	
         0.736	  7.990e-002 	  1.134e-003 	
         0.800	  8.000e-002 	  1.124e-003 	
         0.864	  8.000e-002 	  1.116e-003 	
         0.928	  8.000e-002 	  1.109e-003 	
         0.992	  8.000e-002 	  1.103e-003 	
         1.056	  8.000e-002 	  1.098e-003 	
         1.120	  8.000e-002 	  1.094e-003 	
         1.185	  8.000e-002 	  1.091e-003 	
         1.248	  8.000e-002 	  1.089e-003 	
         1.312	             	  1.087e-003 	
         1.343	  8.000e-002 	             	
         1.375	             	  1.086e-003 	
         1.407	  8.000e-002 	             	
         1.472	  8.000e-002 	  1.084e-003 	
         1.536	  8.000e-002 	  1.084e-003 	
         1.600	  8.000e-002 	  1.083e-003 	
         1.664	  8.000e-002 	  1.083e-003 	
         1.728	  8.000e-002 	  1.082e-003 	
         1.792	  8.000e-002 	  1.082e-003 	
         1.856	  8.000e-002 	  1.082e-003 	
         1.920	  8.000e-002 	  1.081e-003 	
         1.984	  8.000e-002 	  1.081e-003 	
         2.048	  8.000e-002 	  1.081e-003 	
         2.112	             	  1.081e-003 	
         2.145	  8.000e-002 	             	
         2.176	             	  1.081e-003 	
         2.208	  8.000e-002 	             	
         2.272	  8.000e-002 	  1.081e-003 	
         2.336	  8.000e-002 	  1.081e-003 	
         2.400	  8.000e-002 	  1.081e-003 	
         2.464	  8.000e-002 	  1.081e-003 	
         2.528	  8.000e-002 	  1.081e-003 	
         2.592	  7.990e-002 	  1.081e-003 	
         2.656	  7.990e-002 	  1.081e-003 	
         2.720	  7.990e-002 	  1.082e-003 	
         2.784	  7.990e-002 	  1.082e-003 	
         2.847	  7.990e-002 	  1.082e-003 	
         2.912	             	  1.082e-003 	
         2.944	  7.990e-002 	             	
         2.976	             	  1.083e-003 	
         3.008	  7.990e-002 	             	
         3.040	             	  1.083e-003 	
         3.072	  7.990e-002 	             	
         3.136	  8.000e-002 	  1.083e-003 	
         3.200	  8.000e-002 	  1.083e-003 	
         3.264	  8.000e-002 	  1.083e-003 	
         3.328	  8.000e-002 	  1.083e-003 	
         3.392	  8.000e-002 	  1.083e-003 	
         3.456	  8.000e-002 	  1.083e-003 	
         3.520	  8.000e-002 	  1.083e-003 	
         3.584	  8.000e-002 	  1.083e-003 	
         3.648	  8.000e-002 	  1.083e-003 	
         3.712	             	  1.083e-003 	
         3.744	  7.990e-002 	             	
         3.776	             	  1.083e-003 	
         3.808	  7.990e-002 	             	
         3.840	             	  1.084e-003 	
         3.873	  7.990e-002 	             	
         3.936	  7.990e-002 	  1.084e-003 	
         4.000	  7.990e-002 	  1.084e-003 	
         4.063	  7.990e-002 	  1.084e-003 	
         4.128	  7.990e-002 	  1.085e-003 	
         4.192	  7.990e-002 	  1.085e-003 	
         4.256	  8.000e-002 	  1.085e-003 	
         4.320	  8.000e-002 	  1.086e-003 	
         4.384	  8.000e-002 	  1.086e-003 	
         4.448	  8.000e-002 	  1.087e-003 	
         4.512	             	  1.087e-003 	
         4.544	  8.000e-002 	             	
         4.576	             	  1.088e-003 	
         4.609	  8.000e-002 	             	
         4.640	             	  1.088e-003 	
         4.672	  8.000e-002 	             	
         4.736	  8.000e-002 	  1.088e-003 	
         4.800	  8.000e-002 	  1.088e-003 	
         4.864	  8.000e-002 	  1.089e-003 	
         4.928	  8.000e-002 	  1.089e-003 	
         4.992	  8.000e-002 	  1.089e-003 	
         5.056	  8.000e-002 	  1.090e-003 	
         5.120	  8.000e-002 	  1.090e-003 	
         5.185	  8.010e-002 	  1.091e-003 	
         5.248	  8.010e-002 	  1.091e-003 	
         5.312	             	  1.092e-003 	
         5.344	  8.010e-002 	             	
         5.375	             	  1.093e-003 	
         5.408	  8.010e-002 	             	
         5.440	             	  1.093e-003 	
         5.472	  8.010e-002 	             	
         5.536	  8.010e-002 	  1.094e-003 	
         5.600	  8.010e-002 	  1.095e-003 	
         5.664	  8.010e-002 	  1.095e-003 	
         5.728	  8.010e-002 	  1.096e-003 	
         5.792	  8.000e-002 	  1.097e-003 	
         5.856	  8.000e-002 	  1.098e-003 	
         5.920	  8.000e-002 	  1.098e-003 	
         5.984	  8.000e-002 	  1.099e-003 	
         6.048	  8.010e-002 	  1.100e-003 	
         6.112	             	  1.100e-003 	
         6.144	  8.010e-002 	             	
         6.176	             	  1.101e-003 	
         6.208	  8.010e-002 	             	
         6.240	             	  1.101e-003 	
         6.272	  8.010e-002 	             	
         6.336	  8.010e-002 	  1.101e-003 	
         6.400	  8.010e-002 	  1.102e-003 	
         6.464	  8.010e-002 	  1.102e-003 	
         6.528	  8.010e-002 	  1.102e-003 	
         6.593	  8.010e-002 	  1.102e-003 	
         6.656	  8.000e-002 	  1.102e-003 	
         6.720	  8.000e-002 	  1.102e-003 	
         6.784	  8.000e-002 	  1.102e-003 	
         6.848	  8.000e-002 	  1.103e-003 	
         6.912	             	  1.103e-003 	
         6.944	  8.000e-002 	             	
         6.976	             	  1.103e-003 	
         7.008	  8.000e-002 	             	
         7.040	             	  1.103e-003 	
         7.072	  8.000e-002 	             	
         7.136	  8.000e-002 	  1.104e-003 	
         7.200	  8.000e-002 	  1.104e-003 	
         7.264	  7.990e-002 	  1.104e-003 	
         7.328	  7.990e-002 	  1.105e-003 	
         7.392	  7.990e-002 	  1.105e-003 	
         7.455	  7.990e-002 	  1.105e-003 	
         7.520	  7.990e-002 	  1.105e-003 	
         7.585	  7.990e-002 	  1.106e-003 	
         7.648	  7.990e-002 	  1.106e-003 	
         7.712	             	  1.106e-003 	
         7.744	  7.990e-002 	             	
         7.776	             	  1.107e-003 	
         7.808	  7.990e-002 	             	
         7.840	             	  1.107e-003 	
         7.872	  7.990e-002 	             	
         7.937	  7.990e-002 	  1.108e-003 	
         8.000	  7.990e-002 	  1.108e-003 	
         8.063	  7.990e-002 	  1.109e-003 	
         8.128	  7.990e-002 	  1.109e-003 	
         8.192	  7.990e-002 	  1.110e-003 	
         8.257	  7.990e-002 	  1.110e-003 	
         8.320	  7.990e-002 	  1.111e-003 	
         8.384	  7.990e-002 	  1.111e-003 	
         8.448	  7.990e-002 	  1.112e-003 	
         8.512	             	  1.112e-003 	
         8.544	  8.000e-002 	             	
         8.576	             	  1.113e-003 	
         8.608	  8.000e-002 	             	
         8.640	             	  1.113e-003 	
         8.672	  8.000e-002 	             	
         8.736	  8.000e-002 	  1.114e-003 	
         8.800	  8.000e-002 	  1.114e-003 	
         8.864	  8.000e-002 	  1.114e-003 	
         8.928	  8.000e-002 	  1.114e-003 	
         8.993	  8.000e-002 	  1.113e-003 	
         9.056	  8.000e-002 	  1.112e-003 	
         9.120	  8.000e-002 	  1.112e-003 	
         9.184	  8.010e-002 	  1.110e-003 	
         9.248	  8.010e-002 	  1.109e-003 	
         9.312	             	  1.109e-003 	
         9.344	  8.000e-002 	             	
         9.376	             	  1.108e-003 	
         9.408	  8.000e-002 	             	
         9.440	             	  1.107e-003 	
         9.472	  8.000e-002 	             	
         9.535	  8.000e-002 	  1.107e-003 	
         9.600	  8.000e-002 	  1.107e-003 	
         9.665	  8.000e-002 	  1.107e-003 	
         9.728	  8.000e-002 	  1.108e-003 	
         9.792	  8.000e-002 	  1.108e-003 	
         9.855	  8.000e-002 	  1.109e-003 	
         9.920	  8.000e-002 	  1.110e-003 	
         9.984	  8.000e-002 	  1.111e-003 	
        10.049	  8.000e-002 	  1.112e-003 	
        10.112	             	  1.113e-003 	
        10.144	  8.000e-002 	             	
        10.176	             	  1.114e-003 	
        10.208	  8.000e-002 	             	
        10.240	             	  1.115e-003 	
        10.272	  8.000e-002 	             	
        10.336	  8.000e-002 	  1.116e-003 	
        10.400	  8.000e-002 	  1.118e-003 	
        10.464	  8.000e-002 	  1.119e-003 	
        10.528	  8.000e-002 	  1.121e-003 	
        10.592	  8.000e-002 	  1.122e-003 	
        10.656	  8.000e-002 	  1.123e-003 	
        10.720	  8.000e-002 	  1.125e-003 	
        10.784	  8.000e-002 	  1.126e-003 	
        10.848	  8.000e-002 	  1.128e-003 	
        10.912	             	  1.129e-003 	
        10.944	  8.000e-002 	             	
        10.976	             	  1.130e-003 	
        11.008	  8.000e-002 	             	
        11.040	             	  1.130e-003 	
        11.072	  8.000e-002 	             	
        11.136	  8.000e-002 	  1.130e-003 	
        11.200	  8.000e-002 	  1.130e-003 	
        11.264	  8.000e-002 	  1.129e-003 	
        11.328	  8.000e-002 	  1.129e-003 	
        11.392	  8.000e-002 	  1.128e-003 	
        11.456	  8.000e-002 	  1.128e-003 	
        11.520	  8.000e-002 	  1.128e-003 	
        11.584	  8.000e-002 	  1.127e-003 	
        11.648	  8.000e-002 	  1.128e-003 	
        11.712	             	  1.128e-003 	
        11.744	  8.000e-002 	             	
        11.776	             	  1.129e-003 	
        11.808	  8.000e-002 	             	
        11.840	             	  1.129e-003 	
        11.872	  8.000e-002 	             	
        11.936	  8.000e-002 	  1.130e-003 	
        12.000	  8.000e-002 	  1.131e-003 	
        12.064	  8.000e-002 	  1.131e-003 	
        12.128	  8.000e-002 	  1.131e-003 	
        12.192	  8.000e-002 	  1.131e-003 	
        12.256	  8.000e-002 	  1.131e-003 	
        12.320	  8.000e-002 	  1.131e-003 	
        12.384	  8.000e-002 	  1.130e-003 	
        12.448	  8.000e-002 	  1.130e-003 	
        12.512	             	  1.129e-003 	
        12.544	  8.000e-002 	             	
        12.576	             	  1.129e-003 	
        12.608	  8.000e-002 	             	
        12.640	             	  1.130e-003 	
        12.672	  8.000e-002 	             	
        12.736	  8.000e-002 	  1.130e-003 	
        12.800	  8.000e-002 	  1.131e-003 	
        12.864	  8.000e-002 	  1.132e-003 	
        12.928	  7.990e-002 	  1.133e-003 	
        12.992	  7.990e-002 	  1.134e-003 	
        13.056	  7.990e-002 	  1.135e-003 	
        13.120	  7.990e-002 	  1.136e-003 	
        13.184	  7.990e-002 	  1.138e-003 	
        13.248	  7.990e-002 	  1.139e-003 	
        13.312	  7.990e-002 	             	
        13.313	             	  1.140e-003 	
        13.376	             	  1.142e-003 	
        13.408	  7.990e-002 	             	
        13.440	             	  1.143e-003 	
        13.472	  7.990e-002 	             	
        13.536	  7.990e-002 	  1.145e-003 	
        13.600	  7.990e-002 	  1.146e-003 	
        13.664	  7.990e-002 	  1.147e-003 	
        13.728	  8.000e-002 	  1.148e-003 	
        13.792	  8.000e-002 	  1.149e-003 	
        13.856	  8.000e-002 	  1.150e-003 	
        13.920	  8.000e-002 	  1.151e-003 	
        13.984	  7.990e-002 	  1.152e-003 	
        14.048	  7.990e-002 	  1.153e-003 	
        14.112	  7.990e-002 	  1.154e-003 	
        14.176	             	  1.155e-003 	
        14.208	  7.990e-002 	             	
        14.240	             	  1.156e-003 	
        14.272	  7.990e-002 	             	
        14.335	  7.990e-002 	  1.157e-003 	
        14.400	  7.990e-002 	  1.158e-003 	
        14.464	  7.990e-002 	  1.159e-003 	
        14.528	  7.990e-002 	  1.159e-003 	
        14.592	  7.990e-002 	  1.160e-003 	
        14.656	  7.980e-002 	  1.160e-003 	
        14.720	  7.980e-002 	  1.161e-003 	
        14.784	  7.980e-002 	  1.161e-003 	
        14.848	  7.990e-002 	  1.162e-003 	
        14.912	  7.990e-002 	  1.162e-003 	
        14.975	             	  1.162e-003 	
        15.007	  7.990e-002 	             	
        15.040	             	  1.163e-003 	
        15.072	  7.990e-002 	             	
        15.136	  7.990e-002 	  1.163e-003 	
        15.200	  7.990e-002 	  1.164e-003 	
        15.264	  7.990e-002 	  1.164e-003 	
        15.328	  7.990e-002 	  1.165e-003 	
        15.392	  8.000e-002 	  1.165e-003 	
        15.457	  8.000e-002 	  1.166e-003 	
        15.520	  8.000e-002 	  1.166e-003 	
        15.584	  8.000e-002 	  1.167e-003 	
        15.648	  8.000e-002 	  1.168e-003 	
        15.712	  8.000e-002 	  1.168e-003 	
        15.776	             	  1.169e-003 	
        15.808	  8.000e-002 	             	
        15.840	             	  1.170e-003 	
        15.872	  8.000e-002 	             	
        15.904	             	  1.171e-003 	
        15.936	  8.000e-002 	             	
        16.000	  8.000e-002 	  1.172e-003 	
        16.065	  8.000e-002 	  1.173e-003 	
        16.128	  8.000e-002 	  1.173e-003 	
        16.192	  8.000e-002 	  1.174e-003 	
        16.256	  8.000e-002 	  1.175e-003 	
        16.320	  8.000e-002 	  1.176e-003 	
        16.384	  8.000e-002 	  1.177e-003 	
        16.448	  7.990e-002 	  1.178e-003 	
        16.512	  7.990e-002 	  1.179e-003 	
        16.576	             	  1.180e-003 	
        16.608	  7.990e-002 	             	
        16.640	             	  1.181e-003 	
        16.672	  7.990e-002 	             	
        16.736	  7.990e-002 	  1.182e-003 	
        16.800	  7.990e-002 	  1.183e-003 	
        16.864	  7.990e-002 	  1.185e-003 	
        16.928	  7.990e-002 	  1.186e-003 	
        16.992	  7.990e-002 	  1.188e-003 	
        17.055	  7.990e-002 	             	
        17.056	             	  1.189e-003 	
        17.120	  7.990e-002 	  1.191e-003 	
        17.184	  7.990e-002 	  1.192e-003 	
        17.248	  7.990e-002 	  1.193e-003 	
        17.312	  7.990e-002 	  1.194e-003 	
        17.376	             	  1.195e-003 	
        17.408	  8.000e-002 	             	
        17.440	             	  1.197e-003 	
        17.472	  8.000e-002 	             	
        17.504	             	  1.198e-003 	
        17.535	  8.000e-002 	             	
        17.600	  8.000e-002 	  1.199e-003 	
        17.664	  8.000e-002 	  1.200e-003 	
        17.728	  8.000e-002 	  1.202e-003 	
        17.792	  8.000e-002 	  1.203e-003 	
        17.856	  8.000e-002 	  1.204e-003 	
        17.920	  8.000e-002 	  1.206e-003 	
        17.984	  8.010e-002 	  1.207e-003 	
        18.048	  8.010e-002 	  1.209e-003 	
        18.112	  8.010e-002 	  1.210e-003 	
        18.176	             	  1.212e-003 	
        18.208	  8.010e-002 	             	
        18.240	             	  1.213e-003 	
        18.272	  8.010e-002 	             	
        18.304	             	  1.215e-003 	
        18.336	  8.010e-002 	             	
        18.400	  8.010e-002 	  1.216e-003 	
        18.464	  8.010e-002 	  1.218e-003 	
        18.528	  8.010e-002 	  1.219e-003 	
        18.592	  8.010e-002 	  1.220e-003 	
        18.656	             	  1.222e-003 	
        18.657	  8.010e-002 	             	
        18.720	  8.010e-002 	  1.223e-003 	
        18.784	  8.010e-002 	  1.224e-003 	
        18.848	  8.010e-002 	  1.225e-003 	
        18.912	  8.010e-002 	  1.226e-003 	
        18.976	             	  1.228e-003 	
        19.008	  8.010e-002 	             	
        19.040	             	  1.229e-003 	
        19.072	  8.010e-002 	             	
        19.104	             	  1.230e-003 	
        19.136	  8.010e-002 	             	
        19.200	  8.010e-002 	  1.231e-003 	
        19.264	  8.010e-002 	  1.232e-003 	
        19.328	  8.010e-002 	  1.233e-003 	
        19.392	  8.010e-002 	  1.234e-003 	
        19.456	  8.010e-002 	  1.236e-003 	
        19.520	  8.020e-002 	  1.237e-003 	
        19.584	  8.020e-002 	  1.238e-003 	
        19.648	  8.010e-002 	  1.239e-003 	
        19.712	  8.010e-002 	  1.240e-003 	
        19.776	             	  1.241e-003 	
        19.808	  8.010e-002 	             	
        19.839	             	  1.242e-003 	
        19.871	  8.010e-002 	             	
        19.904	             	  1.243e-003 	
        19.936	  8.010e-002 	             	
        20.000	  8.010e-002 	  1.244e-003 	
        20.064	  8.010e-002 	  1.245e-003 	
        20.128	  8.010e-002 	  1.246e-003 	
        20.192	  8.010e-002 	  1.247e-003 	
        20.256	  8.010e-002 	  1.248e-003 	
        20.320	  8.010e-002 	  1.249e-003 	
        20.384	  8.010e-002 	  1.250e-003 	
        20.448	  8.010e-002 	  1.250e-003 	
        20.512	  8.010e-002 	  1.251e-003 	
        20.575	             	  1.252e-003 	
        20.608	  8.010e-002 	             	
        20.640	             	  1.253e-003 	
        20.672	  8.010e-002 	             	
        20.704	             	  1.253e-003 	
        20.736	  8.010e-002 	             	
        20.800	  8.010e-002 	  1.254e-003 	
        20.864	  8.010e-002 	  1.255e-003 	
        20.928	  8.010e-002 	  1.255e-003 	
        20.992	  8.010e-002 	  1.256e-003 	
        21.056	  8.010e-002 	  1.256e-003 	
        21.120	  8.010e-002 	  1.256e-003 	
        21.183	  8.010e-002 	  1.256e-003 	
        21.248	  8.010e-002 	  1.256e-003 	
        21.312	  8.010e-002 	  1.255e-003 	
        21.376	             	  1.255e-003 	
        21.408	  8.020e-002 	             	
        21.440	             	  1.254e-003 	
        21.472	  8.020e-002 	             	
        21.504	             	  1.253e-003 	
        21.536	  8.020e-002 	             	
        21.600	  8.020e-002 	  1.253e-003 	
        21.664	  8.020e-002 	  1.252e-003 	
        21.729	  8.020e-002 	  1.250e-003 	
        21.792	  8.010e-002 	  1.249e-003 	
        21.856	  8.010e-002 	  1.247e-003 	
        21.920	  8.010e-002 	  1.246e-003 	
        21.984	  8.010e-002 	  1.244e-003 	
        22.047	  8.010e-002 	  1.241e-003 	
        22.112	  8.010e-002 	  1.239e-003 	
        22.176	             	  1.236e-003 	
        22.207	  8.010e-002 	             	
        22.240	             	  1.232e-003 	
        22.272	  8.010e-002 	             	
        22.304	             	  1.229e-003 	
        22.337	  8.010e-002 	             	
        22.400	  8.010e-002 	  1.224e-003 	
        22.464	  8.010e-002 	  1.219e-003 	
        22.527	  8.010e-002 	  1.214e-003 	
        22.591	  8.010e-002 	  1.208e-003 	
        22.656	  8.010e-002 	  1.202e-003 	
        22.720	  8.010e-002 	  1.195e-003 	
        22.784	  8.010e-002 	  1.188e-003 	
        22.848	  8.010e-002 	  1.180e-003 	
        22.912	  8.010e-002 	  1.171e-003 	
        22.976	             	  1.161e-003 	
        23.008	  8.010e-002 	             	
        23.040	             	  1.151e-003 	
        23.072	  8.010e-002 	             	
        23.104	             	  1.140e-003 	
        23.136	  8.010e-002 	             	
        23.200	  8.010e-002 	  1.129e-003 	
        23.264	  8.010e-002 	  1.116e-003 	
        23.328	  8.010e-002 	  1.104e-003 	
        23.392	  8.010e-002 	  1.090e-003 	
        23.456	  8.010e-002 	  1.077e-003 	
        23.520	  8.010e-002 	  1.063e-003 	
        23.584	  8.010e-002 	  1.048e-003 	
        23.648	  8.010e-002 	  1.034e-003 	
        23.712	  8.010e-002 	  1.019e-003 	
        23.776	             	  1.005e-003 	
        23.808	  8.010e-002 	             	
        23.840	             	  9.900e-004 	
        23.872	  8.010e-002 	             	
        23.904	             	  9.760e-004 	
        23.936	  8.010e-002 	             	
        24.000	  8.010e-002 	  9.620e-004 	
        24.064	  8.010e-002 	  9.490e-004 	
        24.128	  8.010e-002 	  9.360e-004 	
        24.192	  8.010e-002 	  9.230e-004 	
        24.255	  8.010e-002 	  9.110e-004 	
        24.319	  8.010e-002 	  9.000e-004 	
        24.384	  8.010e-002 	  8.890e-004 	
        24.448	  8.010e-002 	  8.780e-004 	
        24.511	  8.010e-002 	  8.680e-004 	
        24.576	             	  8.590e-004 	
        24.608	  8.010e-002 	             	
        24.640	             	  8.500e-004 	
        24.672	  8.010e-002 	             	
        24.704	             	  8.420e-004 	
        24.736	  8.020e-002 	             	
        24.800	  8.020e-002 	  8.350e-004 	
        24.864	  8.020e-002 	  8.280e-004 	
        24.928	  8.020e-002 	  8.220e-004 	
        24.992	  8.020e-002 	  8.160e-004 	
        25.055	  8.020e-002 	             	
        25.056	             	  8.110e-004 	
        25.119	  8.010e-002 	  8.070e-004 	
        25.184	  8.010e-002 	  8.030e-004 	
        25.248	  8.010e-002 	  8.000e-004 	
        25.312	  8.010e-002 	  7.980e-004 	
        25.376	             	  7.950e-004 	
        25.407	  8.010e-002 	             	
        25.440	             	  7.940e-004 	
        25.472	  8.010e-002 	             	
        25.504	             	  7.920e-004 	
        25.536	  8.000e-002 	             	
        25.600	  8.000e-002 	  7.910e-004 	
        25.664	  8.000e-002 	  7.900e-004 	
        25.728	  8.000e-002 	  7.900e-004 	
        25.791	  8.000e-002 	  7.900e-004 	
        25.855	  8.000e-002 	  7.900e-004 	
        25.920	  8.000e-002 	  7.900e-004 	
        25.984	  8.000e-002 	  7.900e-004 	
        26.048	  8.000e-002 	  7.910e-004 	
        26.112	  8.000e-002 	  7.910e-004 	
        26.175	  8.000e-002 	  7.920e-004 	
        26.240	             	  7.920e-004 	
        26.272	  8.000e-002 	             	
        26.304	             	  7.930e-004 	
        26.336	  8.000e-002 	             	
        26.400	  8.000e-002 	  7.930e-004 	
        26.464	  8.000e-002 	  7.940e-004 	
        26.528	  8.000e-002 	  7.940e-004 	
        26.593	  8.000e-002 	  7.950e-004 	
        26.656	  8.000e-002 	  7.950e-004 	
        26.720	  8.000e-002 	  7.960e-004 	
        26.784	  8.000e-002 	  7.970e-004 	
        26.848	  8.010e-002 	  7.980e-004 	
        26.912	  8.010e-002 	  7.990e-004 	
        26.976	  8.010e-002 	  8.000e-004 	
        27.039	             	  8.010e-004 	
        27.072	  8.010e-002 	             	
        27.104	             	  8.020e-004 	
        27.136	  8.010e-002 	             	
        27.200	  8.020e-002 	  8.030e-004 	
        27.264	  8.020e-002 	  8.040e-004 	
        27.329	  8.020e-002 	  8.060e-004 	
        27.391	  8.020e-002 	             	
        27.392	             	  8.070e-004 	
        27.456	  8.020e-002 	  8.090e-004 	
        27.520	  8.020e-002 	  8.100e-004 	
        27.585	  8.020e-002 	  8.120e-004 	
        27.648	  8.020e-002 	  8.140e-004 	
        27.711	  8.020e-002 	  8.160e-004 	
        27.776	  8.020e-002 	  8.180e-004 	
        27.840	             	  8.200e-004 	
        27.872	  8.020e-002 	             	
        27.904	             	  8.220e-004 	
        27.936	  8.020e-002 	             	
        28.000	  8.010e-002 	  8.240e-004 	
        28.064	  8.010e-002 	  8.260e-004 	
        28.128	  8.010e-002 	  8.280e-004 	
        28.192	  8.010e-002 	  8.300e-004 	
        28.256	  8.010e-002 	  8.320e-004 	
        28.320	  8.000e-002 	  8.340e-004 	
        28.384	  8.000e-002 	  8.360e-004 	
        28.448	  8.000e-002 	  8.380e-004 	
        28.512	  8.000e-002 	  8.400e-004 	
        28.576	  8.000e-002 	  8.410e-004 	
        28.640	             	  8.430e-004 	
        28.672	  8.000e-002 	             	
        28.704	             	  8.450e-004 	
        28.736	  8.000e-002 	             	
        28.800	  8.000e-002 	  8.460e-004 	
        28.864	  8.000e-002 	  8.480e-004 	
        28.927	  8.000e-002 	  8.490e-004 	
        28.992	  8.000e-002 	  8.510e-004 	
        29.055	  8.000e-002 	  8.520e-004 	
        29.120	  8.000e-002 	  8.540e-004 	
        29.184	  8.000e-002 	  8.550e-004 	
        29.248	  8.000e-002 	  8.560e-004 	
        29.312	  8.000e-002 	  8.570e-004 	
        29.375	  8.000e-002 	  8.590e-004 	
        29.440	             	  8.600e-004 	
        29.472	  8.000e-002 	             	
        29.503	             	  8.610e-004 	
        29.536	  8.000e-002 	             	
        29.568	             	  8.620e-004 	
        29.600	  8.000e-002 	             	
        29.665	  8.000e-002 	  8.630e-004 	
        29.728	  8.000e-002 	  8.640e-004 	
        29.791	  8.010e-002 	  8.660e-004 	
        29.855	  8.010e-002 	  8.670e-004 	
        29.920	  8.010e-002 	  8.680e-004 	
        29.984	  8.010e-002 	  8.690e-004 	
        30.048	  8.010e-002 	  8.700e-004 	
        30.112	  8.010e-002 	  8.720e-004 	
        30.176	  8.010e-002 	  8.730e-004 	
        30.240	             	  8.740e-004 	
        30.272	  8.010e-002 	             	
        30.304	             	  8.750e-004 	
        30.336	  8.010e-002 	             	
        30.368	             	  8.750e-004 	
        30.400	  8.010e-002 	             	
        30.464	  8.010e-002 	  8.760e-004 	
        30.528	  8.010e-002 	  8.770e-004 	
        30.592	  8.010e-002 	  8.780e-004 	
        30.656	  8.010e-002 	  8.780e-004 	
        30.720	  8.010e-002 	  8.790e-004 	
        30.784	  8.010e-002 	  8.800e-004 	
        30.848	  8.010e-002 	  8.810e-004 	
        30.912	  8.010e-002 	  8.810e-004 	
        30.976	  8.010e-002 	  8.820e-004 	
        31.040	             	  8.830e-004 	
        31.072	  8.010e-002 	             	
        31.103	             	  8.840e-004 	
        31.136	  8.010e-002 	             	
        31.168	             	  8.850e-004 	
        31.199	  8.010e-002 	             	
        31.264	  8.010e-002 	  8.860e-004 	
        31.328	  8.010e-002 	  8.870e-004 	
        31.392	  8.010e-002 	  8.880e-004 	
        31.456	  8.010e-002 	  8.890e-004 	
        31.520	  8.010e-002 	  8.900e-004 	
        31.584	  8.010e-002 	  8.910e-004 	
        31.648	  8.010e-002 	  8.910e-004 	
        31.712	  8.010e-002 	  8.920e-004 	
        31.776	  8.010e-002 	  8.930e-004 	
        31.840	             	  8.940e-004 	
        31.872	  8.010e-002 	             	
        31.904	             	  8.950e-004 	
        31.936	  8.010e-002 	             	
        31.968	             	  8.950e-004 	
        32.000	  8.010e-002 	             	
        32.063	  8.010e-002 	  8.960e-004 	
        32.128	  8.010e-002 	  8.970e-004 	
        32.192	  8.010e-002 	  8.980e-004 	
        32.256	  8.010e-002 	  8.980e-004 	
        32.320	  8.010e-002 	  8.990e-004 	
        32.384	  8.010e-002 	  9.000e-004 	
        32.448	  8.010e-002 	  9.000e-004 	
        32.512	  8.010e-002 	  9.010e-004 	
        32.576	  8.010e-002 	  9.020e-004 	
        32.640	             	  9.030e-004 	
        32.672	  8.010e-002 	             	
        32.704	             	  9.040e-004 	
        32.736	  8.010e-002 	             	
        32.768	             	  9.050e-004 	
        32.800	  8.010e-002 	             	
        32.863	  8.010e-002 	  9.060e-004 	
        32.928	  8.010e-002 	  9.070e-004 	
        32.992	  8.010e-002 	  9.080e-004 	
        33.056	  8.010e-002 	  9.090e-004 	
        33.120	  8.010e-002 	  9.100e-004 	
        33.184	  8.010e-002 	  9.110e-004 	
        33.249	  8.010e-002 	  9.120e-004 	
        33.312	  8.000e-002 	  9.130e-004 	
        33.376	  8.000e-002 	  9.140e-004 	
        33.440	             	  9.150e-004 	
        33.472	  8.000e-002 	             	
        33.504	             	  9.160e-004 	
        33.536	  8.000e-002 	             	
        33.568	             	  9.170e-004 	
        33.600	  8.000e-002 	             	
        33.664	  8.000e-002 	  9.180e-004 	
        33.728	  8.000e-002 	  9.180e-004 	
        33.792	  8.000e-002 	  9.190e-004 	
        33.856	  8.000e-002 	  9.200e-004 	
        33.920	  8.000e-002 	  9.200e-004 	
        33.984	  8.000e-002 	  9.210e-004 	
        34.048	  8.000e-002 	  9.220e-004 	
        34.112	  8.000e-002 	  9.230e-004 	
        34.176	  8.000e-002 	  9.240e-004 	
        34.240	             	  9.240e-004 	
        34.271	  8.000e-002 	             	
        34.304	             	  9.250e-004 	
        34.336	  8.000e-002 	             	
        34.368	             	  9.260e-004 	
        34.400	  8.000e-002 	             	
        34.464	  8.000e-002 	  9.270e-004 	
        34.528	  8.000e-002 	  9.280e-004 	
        34.592	  8.000e-002 	  9.290e-004 	
        34.656	  8.010e-002 	  9.300e-004 	
        34.720	  8.010e-002 	  9.310e-004 	
        34.784	  8.010e-002 	  9.320e-004 	
        34.848	  8.010e-002 	  9.330e-004 	
        34.912	  8.010e-002 	  9.340e-004 	
        34.976	  8.010e-002 	  9.350e-004 	
        35.040	             	  9.360e-004 	
        35.071	  8.010e-002 	             	
        35.104	             	  9.370e-004 	
        35.136	  8.010e-002 	             	
        35.168	             	  9.380e-004 	
        35.200	  8.010e-002 	             	
        35.264	  8.010e-002 	  9.390e-004 	
        35.328	  8.010e-002 	  9.400e-004 	
        35.392	  8.010e-002 	  9.410e-004 	
        35.456	  8.010e-002 	  9.420e-004 	
        35.520	  8.010e-002 	  9.430e-004 	
        35.584	  8.010e-002 	  9.440e-004 	
        35.648	  8.010e-002 	  9.440e-004 	
        35.712	  8.010e-002 	  9.450e-004 	
        35.776	  8.010e-002 	  9.460e-004 	
        35.840	             	  9.470e-004 	
        35.872	  8.010e-002 	             	
        35.904	             	  9.470e-004 	
        35.936	  8.010e-002 	             	
        35.968	             	  9.480e-004 	
        36.000	  8.010e-002 	             	
        36.064	  8.010e-002 	  9.480e-004 	
        36.128	  8.010e-002 	  9.480e-004 	
        36.192	  8.010e-002 	  9.490e-004 	
        36.256	  8.010e-002 	  9.490e-004 	
        36.320	  8.010e-002 	  9.490e-004 	
        36.383	  8.010e-002 	  9.490e-004 	
        36.448	  8.010e-002 	  9.500e-004 	
        36.512	  8.010e-002 	  9.500e-004 	
        36.576	  8.010e-002 	  9.500e-004 	
        36.640	             	  9.500e-004 	
        36.672	  8.000e-002 	             	
        36.704	             	  9.510e-004 	
        36.736	  8.000e-002 	             	
        36.768	             	  9.510e-004 	
        36.800	  8.000e-002 	             	
        36.865	  8.000e-002 	  9.510e-004 	
        36.927	  8.000e-002 	  9.520e-004 	
        36.992	  8.010e-002 	  9.520e-004 	
        37.056	  8.010e-002 	  9.530e-004 	
        37.120	  8.010e-002 	  9.540e-004 	
        37.183	  8.010e-002 	  9.540e-004 	
        37.248	  8.010e-002 	  9.550e-004 	
        37.312	  8.010e-002 	  9.560e-004 	
        37.376	  8.010e-002 	  9.570e-004 	
        37.440	             	  9.570e-004 	
        37.472	  8.010e-002 	             	
        37.503	             	  9.580e-004 	
        37.536	  8.010e-002 	             	
        37.568	             	  9.590e-004 	
        37.600	  8.010e-002 	             	
        37.664	  8.010e-002 	  9.600e-004 	
        37.728	  8.010e-002 	  9.600e-004 	
        37.792	  8.010e-002 	  9.610e-004 	
        37.856	  8.010e-002 	  9.620e-004 	
        37.920	  8.010e-002 	  9.620e-004 	
        37.985	  8.010e-002 	  9.630e-004 	
        38.048	  8.010e-002 	  9.630e-004 	
        38.111	  8.010e-002 	             	
        38.112	             	  9.640e-004 	
        38.176	  8.010e-002 	  9.640e-004 	
        38.240	             	  9.650e-004 	
        38.272	  8.010e-002 	             	
        38.304	             	  9.650e-004 	
        38.336	  8.010e-002 	             	
        38.368	             	  9.650e-004 	
        38.400	  8.010e-002 	             	
        38.464	  8.010e-002 	  9.660e-004 	
        38.528	  8.010e-002 	  9.660e-004 	
        38.592	  8.010e-002 	  9.670e-004 	
        38.656	  8.010e-002 	  9.670e-004 	
        38.720	  8.000e-002 	  9.680e-004 	
        38.783	  8.000e-002 	  9.680e-004 	
        38.848	  8.000e-002 	  9.680e-004 	
        38.912	  8.000e-002 	  9.690e-004 	
        38.976	  7.990e-002 	  9.690e-004 	
        39.040	  7.990e-002 	  9.690e-004 	
        39.104	             	  9.690e-004 	
        39.135	  7.990e-002 	             	
        39.168	             	  9.700e-004 	
        39.200	  7.990e-002 	             	
        39.264	  7.990e-002 	  9.700e-004 	
        39.329	  7.990e-002 	  9.700e-004 	
        39.392	  7.990e-002 	  9.700e-004 	
        39.456	  7.990e-002 	  9.710e-004 	
        39.520	  7.990e-002 	  9.710e-004 	
        39.584	  8.000e-002 	  9.710e-004 	
        39.648	  8.000e-002 	  9.720e-004 	
        39.712	  8.000e-002 	  9.720e-004 	
        39.776	  8.000e-002 	  9.720e-004 	
        39.839	  8.000e-002 	             	
        39.840	             	  9.730e-004 	
        39.904	             	  9.730e-004 	
        39.936	  8.000e-002 	             	
        39.968	             	  9.740e-004 	
        40.000	  8.000e-002 	             	
        40.064	  8.000e-002 	  9.740e-004 	
        40.128	  8.000e-002 	  9.740e-004 	
        40.192	  8.000e-002 	  9.750e-004 	
        40.256	  8.000e-002 	  9.750e-004 	
        40.320	  8.000e-002 	  9.760e-004 	
        40.384	  8.000e-002 	  9.760e-004 	
        40.448	  8.000e-002 	  9.760e-004 	
        40.512	  8.000e-002 	  9.770e-004 	
        40.576	  8.000e-002 	  9.770e-004 	
        40.639	  8.000e-002 	  9.770e-004 	
        40.703	             	  9.770e-004 	
        40.736	  8.000e-002 	             	
        40.768	             	  9.780e-004 	
        40.799	  8.000e-002 	             	
        40.864	  8.000e-002 	  9.780e-004 	
        40.928	  8.000e-002 	  9.780e-004 	
        40.992	  8.000e-002 	  9.780e-004 	
        41.056	  8.000e-002 	  9.780e-004 	
        41.120	  8.000e-002 	  9.790e-004 	
        41.184	  8.000e-002 	  9.790e-004 	
        41.248	  8.000e-002 	  9.790e-004 	
        41.313	  8.000e-002 	  9.790e-004 	
        41.376	  8.000e-002 	  9.790e-004 	
        41.440	  8.010e-002 	  9.800e-004 	
        41.504	             	  9.800e-004 	
        41.536	  8.010e-002 	             	
        41.568	             	  9.800e-004 	
        41.600	  8.010e-002 	             	
        41.664	  8.010e-002 	  9.800e-004 	
        41.728	  8.010e-002 	  9.800e-004 	
        41.792	  8.010e-002 	  9.810e-004 	
        41.856	  8.000e-002 	  9.810e-004 	
        41.920	  8.000e-002 	  9.810e-004 	
        41.984	  8.010e-002 	  9.810e-004 	
        42.048	  8.010e-002 	  9.810e-004 	
        42.112	  8.010e-002 	  9.810e-004 	
        42.176	  8.010e-002 	  9.810e-004 	
        42.240	  8.010e-002 	  9.810e-004 	
        42.304	             	  9.820e-004 	
        42.336	  8.010e-002 	             	
