;PC Software:StarLab Version 3.30 Build 10
! ******* Warning: Do not modify this file. Changes may prevent   ********
! ******* the StarLab Log reader from opening the file correctly. ********
;Logged:30/03/2021 at 10:49:27
;File Version:5
;Time Resolution:1 microseconds
;Log Settings:Stop after:period: 00:05:00
;Graph Mode:Split
;Notes:                                                            

;Channel A:Vega Thermopile 3A (s/n:940606)  VG2.52 (s/n:946462)
;Channel B:Vega Thermopile 3A (s/n:947746)  VG2.52 (s/n:946463)

;Channel A:Details
;Name:3A
;Graph Type:Line
;Graph Color:RGB(14,104,168)
;Units:W
;Settings:Measuring:Power
;Settings:Wavelength:532
;Settings:Range:AUTO

;Channel B:Details
;Name:3A
;Graph Type:Line
;Graph Color:RGB(245,86,16)
;Units:W
;Settings:Measuring:Power
;Settings:Wavelength:532
;Settings:Range:AUTO

;Channel A:Statistics
;Min:658.0mW             
;Max:658.0mW             
;Average:658.0mW             
;Std.Dev.:0.000W              
;Overrange:0                   

;Channel B:Statistics
;Min:5.160mW             
;Max:8.090mW             
;Average:6.389mW             
;Std.Dev.:911.5uW             
;Overrange:0                   
;--------------------


;First Pulse Arrived : 30/03/2021 at 10:49:27.999000
  Timestamp   	  Channel A  	  Channel B  	
         0.000	  6.580e-001 	             	
         0.064	  6.580e-001 	  6.530e-003 	
         0.129	  6.580e-001 	  6.530e-003 	
         0.192	  6.580e-001 	  6.530e-003 	
         0.256	             	  6.530e-003 	
         0.289	  6.580e-001 	             	
         0.321	             	  6.530e-003 	
         0.353	  6.580e-001 	             	
         0.385	             	  6.530e-003 	
         0.417	  6.580e-001 	             	
         0.449	             	  6.530e-003 	
         0.481	  6.580e-001 	             	
         0.513	             	  6.530e-003 	
         0.545	  6.580e-001 	             	
         0.577	             	  6.530e-003 	
         0.608	  6.580e-001 	             	
         0.641	             	  6.540e-003 	
         0.672	  6.580e-001 	             	
         0.705	             	  6.540e-003 	
         0.737	  6.580e-001 	             	
         0.768	             	  6.540e-003 	
         0.801	  6.580e-001 	             	
         0.865	  6.580e-001 	  6.540e-003 	
         0.929	  6.580e-001 	  6.540e-003 	
         0.993	  6.580e-001 	  6.540e-003 	
         1.057	             	  6.550e-003 	
         1.088	  6.580e-001 	             	
         1.120	             	  6.550e-003 	
         1.152	  6.580e-001 	             	
         1.185	             	  6.550e-003 	
         1.217	  6.580e-001 	             	
         1.249	             	  6.550e-003 	
         1.281	  6.580e-001 	             	
         1.313	             	  6.560e-003 	
         1.345	  6.580e-001 	             	
         1.377	             	  6.560e-003 	
         1.409	  6.580e-001 	             	
         1.441	             	  6.560e-003 	
         1.473	  6.580e-001 	             	
         1.505	             	  6.560e-003 	
         1.537	  6.580e-001 	             	
         1.569	             	  6.560e-003 	
         1.600	  6.580e-001 	             	
         1.665	  6.580e-001 	  6.570e-003 	
         1.729	  6.580e-001 	  6.570e-003 	
         1.793	  6.580e-001 	  6.570e-003 	
         1.857	             	  6.570e-003 	
         1.889	  6.580e-001 	             	
         1.921	             	  6.570e-003 	
         1.953	  6.580e-001 	             	
         1.984	             	  6.570e-003 	
         2.016	  6.580e-001 	             	
         2.048	             	  6.570e-003 	
         2.080	  6.580e-001 	             	
         2.113	             	  6.570e-003 	
         2.145	  6.580e-001 	             	
         2.177	             	  6.580e-003 	
         2.209	  6.580e-001 	             	
         2.241	             	  6.580e-003 	
         2.272	  6.580e-001 	             	
         2.305	             	  6.580e-003 	
         2.337	  6.580e-001 	             	
         2.369	             	  6.580e-003 	
         2.401	  6.580e-001 	             	
         2.465	  6.580e-001 	  6.580e-003 	
         2.529	  6.580e-001 	  6.580e-003 	
         2.593	  6.580e-001 	  6.580e-003 	
         2.657	             	  6.580e-003 	
         2.689	  6.580e-001 	             	
         2.721	             	  6.590e-003 	
         2.753	  6.580e-001 	             	
         2.785	             	  6.590e-003 	
         2.817	  6.580e-001 	             	
         2.849	             	  6.590e-003 	
         2.881	  6.580e-001 	             	
         2.913	             	  6.590e-003 	
         2.945	  6.580e-001 	             	
         2.977	             	  6.590e-003 	
         3.009	  6.580e-001 	             	
         3.041	             	  6.590e-003 	
         3.073	  6.580e-001 	             	
         3.105	             	  6.590e-003 	
         3.136	  6.580e-001 	             	
         3.169	             	  6.600e-003 	
         3.201	  6.580e-001 	             	
         3.264	  6.580e-001 	  6.600e-003 	
         3.329	  6.580e-001 	  6.600e-003 	
         3.392	  6.580e-001 	  6.600e-003 	
         3.457	             	  6.600e-003 	
         3.489	  6.580e-001 	             	
         3.521	             	  6.600e-003 	
         3.553	  6.580e-001 	             	
         3.584	             	  6.600e-003 	
         3.617	  6.580e-001 	             	
         3.649	             	  6.610e-003 	
         3.680	  6.580e-001 	             	
         3.713	             	  6.610e-003 	
         3.745	  6.580e-001 	             	
         3.777	             	  6.610e-003 	
         3.809	  6.580e-001 	             	
         3.841	             	  6.610e-003 	
         3.873	  6.580e-001 	             	
         3.905	             	  6.610e-003 	
         3.936	  6.580e-001 	             	
         3.969	             	  6.610e-003 	
         4.001	  6.580e-001 	             	
         4.064	  6.580e-001 	  6.620e-003 	
         4.129	  6.580e-001 	  6.620e-003 	
         4.193	  6.580e-001 	  6.620e-003 	
         4.257	  6.580e-001 	  6.620e-003 	
         4.321	             	  6.620e-003 	
         4.353	  6.580e-001 	             	
         4.385	             	  6.630e-003 	
         4.417	  6.580e-001 	             	
         4.449	             	  6.630e-003 	
         4.481	  6.580e-001 	             	
         4.513	             	  6.630e-003 	
         4.545	  6.580e-001 	             	
         4.576	             	  6.630e-003 	
         4.608	  6.580e-001 	             	
         4.640	             	  6.630e-003 	
         4.673	  6.580e-001 	             	
         4.705	             	  6.640e-003 	
         4.736	  6.580e-001 	             	
         4.769	             	  6.640e-003 	
         4.801	  6.580e-001 	             	
         4.864	  6.580e-001 	  6.640e-003 	
         4.929	  6.580e-001 	  6.640e-003 	
         4.993	  6.580e-001 	  6.640e-003 	
         5.057	  6.580e-001 	  6.650e-003 	
         5.121	             	  6.650e-003 	
         5.153	  6.580e-001 	             	
         5.185	             	  6.650e-003 	
         5.216	  6.580e-001 	             	
         5.249	             	  6.650e-003 	
         5.280	  6.580e-001 	             	
         5.313	             	  6.660e-003 	
         5.345	  6.580e-001 	             	
         5.377	             	  6.660e-003 	
         5.408	  6.580e-001 	             	
         5.441	             	  6.660e-003 	
         5.472	  6.580e-001 	             	
         5.504	             	  6.660e-003 	
         5.536	  6.580e-001 	             	
         5.568	             	  6.670e-003 	
         5.600	  6.580e-001 	             	
         5.664	  6.580e-001 	  6.670e-003 	
         5.729	  6.580e-001 	  6.670e-003 	
         5.793	  6.580e-001 	  6.680e-003 	
         5.857	  6.580e-001 	  6.680e-003 	
         5.921	             	  6.680e-003 	
         5.953	  6.580e-001 	             	
         5.985	             	  6.680e-003 	
         6.016	  6.580e-001 	             	
         6.049	             	  6.690e-003 	
         6.080	  6.580e-001 	             	
         6.113	             	  6.690e-003 	
         6.145	  6.580e-001 	             	
         6.177	             	  6.690e-003 	
         6.208	  6.580e-001 	             	
         6.241	             	  6.690e-003 	
         6.273	  6.580e-001 	             	
         6.305	             	  6.700e-003 	
         6.337	  6.580e-001 	             	
         6.369	             	  6.700e-003 	
         6.401	  6.580e-001 	             	
         6.432	             	  6.700e-003 	
         6.465	  6.580e-001 	             	
         6.529	  6.580e-001 	  6.700e-003 	
         6.593	  6.580e-001 	  6.710e-003 	
         6.656	  6.580e-001 	  6.710e-003 	
         6.721	             	  6.710e-003 	
         6.753	  6.580e-001 	             	
         6.785	             	  6.720e-003 	
         6.817	  6.580e-001 	             	
         6.849	             	  6.720e-003 	
         6.881	  6.580e-001 	             	
         6.913	             	  6.720e-003 	
         6.945	  6.580e-001 	             	
         6.977	             	  6.720e-003 	
         7.009	  6.580e-001 	             	
         7.041	             	  6.730e-003 	
         7.073	  6.580e-001 	             	
         7.105	             	  6.730e-003 	
         7.137	  6.580e-001 	             	
         7.169	             	  6.730e-003 	
         7.201	  6.580e-001 	             	
         7.233	             	  6.740e-003 	
         7.265	  6.580e-001 	             	
         7.329	  6.580e-001 	  6.740e-003 	
         7.393	  6.580e-001 	  6.750e-003 	
         7.457	  6.580e-001 	  6.750e-003 	
         7.520	             	  6.750e-003 	
         7.552	  6.580e-001 	             	
         7.585	             	  6.750e-003 	
         7.617	  6.580e-001 	             	
         7.648	             	  6.760e-003 	
         7.681	  6.580e-001 	             	
         7.713	             	  6.760e-003 	
         7.745	  6.580e-001 	             	
         7.777	             	  6.760e-003 	
         7.809	  6.580e-001 	             	
         7.841	             	  6.770e-003 	
         7.873	  6.580e-001 	             	
         7.905	             	  6.770e-003 	
         7.936	  6.580e-001 	             	
         7.969	             	  6.770e-003 	
         8.000	  6.580e-001 	             	
         8.033	             	  6.780e-003 	
         8.065	  6.580e-001 	             	
         8.129	  6.580e-001 	  6.780e-003 	
         8.192	  6.580e-001 	  6.790e-003 	
         8.257	  6.580e-001 	  6.790e-003 	
         8.321	             	  6.790e-003 	
         8.353	  6.580e-001 	             	
         8.384	             	  6.800e-003 	
         8.416	  6.580e-001 	             	
         8.449	             	  6.800e-003 	
         8.481	  6.580e-001 	             	
         8.513	             	  6.800e-003 	
         8.545	  6.580e-001 	             	
         8.577	             	  6.810e-003 	
         8.608	  6.580e-001 	             	
         8.641	             	  6.810e-003 	
         8.673	  6.580e-001 	             	
         8.704	             	  6.810e-003 	
         8.736	  6.580e-001 	             	
         8.769	             	  6.820e-003 	
         8.801	  6.580e-001 	             	
         8.833	             	  6.820e-003 	
         8.865	  6.580e-001 	             	
         8.929	  6.580e-001 	  6.820e-003 	
         8.992	  6.580e-001 	  6.830e-003 	
         9.057	  6.580e-001 	  6.830e-003 	
         9.121	             	  6.840e-003 	
         9.153	  6.580e-001 	             	
         9.185	             	  6.840e-003 	
         9.217	  6.580e-001 	             	
         9.249	             	  6.850e-003 	
         9.280	  6.580e-001 	             	
         9.313	             	  6.850e-003 	
         9.345	  6.580e-001 	             	
         9.377	             	  6.850e-003 	
         9.408	  6.580e-001 	             	
         9.441	             	  6.860e-003 	
         9.473	  6.580e-001 	             	
         9.505	             	  6.860e-003 	
         9.537	  6.580e-001 	             	
         9.569	             	  6.870e-003 	
         9.601	  6.580e-001 	             	
         9.633	             	  6.870e-003 	
         9.665	  6.580e-001 	             	
         9.728	  6.580e-001 	             	
         9.729	             	  6.880e-003 	
         9.793	  6.580e-001 	  6.880e-003 	
         9.857	  6.580e-001 	  6.890e-003 	
         9.921	             	  6.890e-003 	
         9.953	  6.580e-001 	             	
         9.985	             	  6.900e-003 	
        10.017	  6.580e-001 	             	
        10.049	             	  6.900e-003 	
        10.081	  6.580e-001 	             	
        10.112	             	  6.910e-003 	
        10.145	  6.580e-001 	             	
        10.177	             	  6.910e-003 	
        10.209	  6.580e-001 	             	
        10.241	             	  6.920e-003 	
        10.273	  6.580e-001 	             	
        10.305	             	  6.920e-003 	
        10.337	  6.580e-001 	             	
        10.369	             	  6.930e-003 	
        10.401	  6.580e-001 	             	
        10.433	             	  6.930e-003 	
        10.465	  6.580e-001 	             	
        10.529	  6.580e-001 	  6.930e-003 	
        10.593	  6.580e-001 	  6.940e-003 	
        10.657	  6.580e-001 	  6.940e-003 	
        10.721	             	  6.950e-003 	
        10.752	  6.580e-001 	             	
        10.785	             	  6.950e-003 	
        10.817	  6.580e-001 	             	
        10.849	             	  6.960e-003 	
        10.881	  6.580e-001 	             	
        10.913	             	  6.960e-003 	
        10.945	  6.580e-001 	             	
        10.977	             	  6.970e-003 	
        11.009	  6.580e-001 	             	
        11.040	             	  6.970e-003 	
        11.073	  6.580e-001 	             	
        11.105	             	  6.980e-003 	
        11.136	  6.580e-001 	             	
        11.168	             	  6.980e-003 	
        11.200	  6.580e-001 	             	
        11.233	             	  6.990e-003 	
        11.265	  6.580e-001 	             	
        11.329	  6.580e-001 	  6.990e-003 	
        11.393	  6.580e-001 	  7.000e-003 	
        11.457	  6.580e-001 	  7.000e-003 	
        11.521	             	  7.010e-003 	
        11.553	  6.580e-001 	             	
        11.585	             	  7.010e-003 	
        11.616	  6.580e-001 	             	
        11.648	             	  7.020e-003 	
        11.681	  6.580e-001 	             	
        11.713	             	  7.030e-003 	
        11.745	  6.580e-001 	             	
        11.776	             	  7.040e-003 	
        11.809	  6.580e-001 	             	
        11.841	             	  7.040e-003 	
        11.873	  6.580e-001 	             	
        11.904	             	  7.050e-003 	
        11.937	  6.580e-001 	             	
        11.969	             	  7.060e-003 	
        12.000	  6.580e-001 	             	
        12.033	             	  7.070e-003 	
        12.065	  6.580e-001 	             	
        12.129	  6.580e-001 	  7.080e-003 	
        12.193	  6.580e-001 	  7.090e-003 	
        12.257	  6.580e-001 	  7.090e-003 	
        12.321	             	  7.100e-003 	
        12.352	  6.580e-001 	             	
        12.385	             	  7.110e-003 	
        12.417	  6.580e-001 	             	
        12.448	             	  7.120e-003 	
        12.480	  6.580e-001 	             	
        12.512	             	  7.120e-003 	
        12.545	  6.580e-001 	             	
        12.577	             	  7.130e-003 	
        12.609	  6.580e-001 	             	
        12.640	             	  7.140e-003 	
        12.672	  6.580e-001 	             	
        12.705	             	  7.140e-003 	
        12.737	  6.580e-001 	             	
        12.769	             	  7.150e-003 	
        12.801	  6.580e-001 	             	
        12.832	             	  7.160e-003 	
        12.865	  6.580e-001 	             	
        12.929	  6.580e-001 	  7.160e-003 	
        12.993	  6.580e-001 	  7.170e-003 	
        13.057	  6.580e-001 	  7.180e-003 	
        13.121	             	  7.180e-003 	
        13.153	  6.580e-001 	             	
        13.185	             	  7.190e-003 	
        13.217	  6.580e-001 	             	
        13.249	             	  7.200e-003 	
        13.280	  6.580e-001 	             	
        13.313	             	  7.210e-003 	
        13.344	  6.580e-001 	             	
        13.377	             	  7.220e-003 	
        13.409	  6.580e-001 	             	
        13.441	             	  7.220e-003 	
        13.473	  6.580e-001 	             	
        13.504	             	  7.230e-003 	
        13.537	  6.580e-001 	             	
        13.569	             	  7.240e-003 	
        13.601	  6.580e-001 	             	
        13.633	             	  7.250e-003 	
        13.664	  6.580e-001 	             	
        13.729	  6.580e-001 	  7.260e-003 	
        13.793	  6.580e-001 	  7.270e-003 	
        13.857	  6.580e-001 	  7.270e-003 	
        13.921	             	  7.280e-003 	
        13.953	  6.580e-001 	             	
        13.985	             	  7.290e-003 	
        14.017	  6.580e-001 	             	
        14.049	             	  7.300e-003 	
        14.081	  6.580e-001 	             	
        14.112	             	  7.310e-003 	
        14.144	  6.580e-001 	             	
        14.177	             	  7.320e-003 	
        14.209	  6.580e-001 	             	
        14.241	             	  7.330e-003 	
        14.273	  6.580e-001 	             	
        14.305	             	  7.350e-003 	
        14.337	  6.580e-001 	             	
        14.369	             	  7.360e-003 	
        14.401	  6.580e-001 	             	
        14.433	             	  7.370e-003 	
        14.465	  6.580e-001 	             	
        14.529	  6.580e-001 	  7.380e-003 	
        14.593	  6.580e-001 	  7.390e-003 	
        14.657	  6.580e-001 	  7.400e-003 	
        14.721	             	  7.410e-003 	
        14.753	  6.580e-001 	             	
        14.785	             	  7.420e-003 	
        14.817	  6.580e-001 	             	
        14.849	             	  7.430e-003 	
        14.881	  6.580e-001 	             	
        14.913	             	  7.440e-003 	
        14.944	  6.580e-001 	             	
        14.977	             	  7.450e-003 	
        15.009	  6.580e-001 	             	
        15.041	             	  7.460e-003 	
        15.073	  6.580e-001 	             	
        15.105	             	  7.470e-003 	
        15.137	  6.580e-001 	             	
        15.169	             	  7.480e-003 	
        15.201	  6.580e-001 	             	
        15.233	             	  7.490e-003 	
        15.264	  6.580e-001 	             	
        15.329	  6.580e-001 	  7.500e-003 	
        15.393	  6.580e-001 	  7.520e-003 	
        15.457	  6.580e-001 	  7.530e-003 	
        15.521	             	  7.540e-003 	
        15.553	  6.580e-001 	             	
        15.585	             	  7.550e-003 	
        15.616	  6.580e-001 	             	
        15.649	             	  7.560e-003 	
        15.681	  6.580e-001 	             	
        15.713	             	  7.580e-003 	
        15.745	  6.580e-001 	             	
        15.776	             	  7.590e-003 	
        15.809	  6.580e-001 	             	
        15.841	             	  7.600e-003 	
        15.873	  6.580e-001 	             	
        15.905	             	  7.610e-003 	
        15.937	  6.580e-001 	             	
        15.969	             	  7.630e-003 	
        16.001	  6.580e-001 	             	
        16.033	             	  7.640e-003 	
        16.064	  6.580e-001 	             	
        16.129	  6.580e-001 	  7.660e-003 	
        16.193	  6.580e-001 	  7.670e-003 	
        16.257	  6.580e-001 	  7.680e-003 	
        16.321	             	  7.700e-003 	
        16.353	  6.580e-001 	             	
        16.385	             	  7.710e-003 	
        16.417	  6.580e-001 	             	
        16.449	             	  7.720e-003 	
        16.481	  6.580e-001 	             	
        16.513	             	  7.740e-003 	
        16.544	  6.580e-001 	             	
        16.577	             	  7.750e-003 	
        16.609	  6.580e-001 	             	
        16.640	             	  7.760e-003 	
        16.673	  6.580e-001 	             	
        16.705	             	  7.780e-003 	
        16.737	  6.580e-001 	             	
        16.768	             	  7.790e-003 	
        16.801	  6.580e-001 	             	
        16.833	             	  7.800e-003 	
        16.865	  6.580e-001 	             	
        16.929	  6.580e-001 	  7.810e-003 	
        16.993	  6.580e-001 	  7.830e-003 	
        17.057	  6.580e-001 	  7.840e-003 	
        17.121	  6.580e-001 	  7.850e-003 	
        17.185	             	  7.870e-003 	
        17.217	  6.580e-001 	             	
        17.249	             	  7.880e-003 	
        17.280	  6.580e-001 	             	
        17.312	             	  7.890e-003 	
        17.345	  6.580e-001 	             	
        17.377	             	  7.900e-003 	
        17.409	  6.580e-001 	             	
        17.441	             	  7.910e-003 	
        17.472	  6.580e-001 	             	
        17.504	             	  7.920e-003 	
        17.537	  6.580e-001 	             	
        17.569	             	  7.930e-003 	
        17.601	  6.580e-001 	             	
        17.633	             	  7.940e-003 	
        17.665	  6.580e-001 	             	
        17.729	  6.580e-001 	  7.950e-003 	
        17.793	  6.580e-001 	  7.960e-003 	
        17.857	  6.580e-001 	  7.970e-003 	
        17.921	  6.580e-001 	  7.980e-003 	
        17.985	             	  7.990e-003 	
        18.017	  6.580e-001 	             	
        18.049	             	  8.000e-003 	
        18.081	  6.580e-001 	             	
        18.113	             	  8.010e-003 	
        18.145	  6.580e-001 	             	
        18.177	             	  8.020e-003 	
        18.209	  6.580e-001 	             	
        18.241	             	  8.020e-003 	
        18.273	  6.580e-001 	             	
        18.305	             	  8.030e-003 	
        18.337	  6.580e-001 	             	
        18.369	             	  8.040e-003 	
        18.401	  6.580e-001 	             	
        18.433	             	  8.040e-003 	
        18.465	  6.580e-001 	             	
        18.497	             	  8.050e-003 	
        18.529	  6.580e-001 	             	
        18.593	  6.580e-001 	  8.050e-003 	
        18.657	  6.580e-001 	  8.060e-003 	
        18.721	  6.580e-001 	  8.060e-003 	
        18.785	             	  8.070e-003 	
        18.817	  6.580e-001 	             	
        18.848	             	  8.070e-003 	
        18.881	  6.580e-001 	             	
        18.913	             	  8.070e-003 	
        18.945	  6.580e-001 	             	
        18.977	             	  8.080e-003 	
        19.008	  6.580e-001 	             	
        19.041	             	  8.080e-003 	
        19.072	  6.580e-001 	             	
        19.105	             	  8.080e-003 	
        19.136	  6.580e-001 	             	
        19.169	             	  8.080e-003 	
        19.201	  6.580e-001 	             	
        19.233	             	  8.090e-003 	
        19.265	  6.580e-001 	             	
        19.297	             	  8.090e-003 	
        19.328	  6.580e-001 	             	
        19.393	  6.580e-001 	  8.090e-003 	
        19.457	  6.580e-001 	  8.080e-003 	
        19.521	             	  8.080e-003 	
        19.553	  6.580e-001 	             	
        19.585	             	  8.080e-003 	
        19.617	  6.580e-001 	             	
        19.649	             	  8.070e-003 	
        19.681	  6.580e-001 	             	
        19.713	             	  8.070e-003 	
        19.745	  6.580e-001 	             	
        19.777	             	  8.060e-003 	
        19.809	  6.580e-001 	             	
        19.841	             	  8.050e-003 	
        19.873	  6.580e-001 	             	
        19.905	             	  8.040e-003 	
        19.937	  6.580e-001 	             	
        19.969	             	  8.030e-003 	
        20.001	  6.580e-001 	             	
        20.033	             	  8.030e-003 	
        20.065	  6.580e-001 	             	
        20.097	             	  8.020e-003 	
        20.128	  6.580e-001 	             	
        20.192	  6.580e-001 	  8.000e-003 	
        20.257	  6.580e-001 	  7.990e-003 	
        20.321	  6.580e-001 	  7.980e-003 	
        20.385	             	  7.970e-003 	
        20.417	  6.580e-001 	             	
        20.449	             	  7.950e-003 	
        20.481	  6.580e-001 	             	
        20.513	             	  7.940e-003 	
        20.545	  6.580e-001 	             	
        20.577	             	  7.920e-003 	
        20.608	  6.580e-001 	             	
        20.641	             	  7.900e-003 	
        20.673	  6.580e-001 	             	
        20.705	             	  7.890e-003 	
        20.737	  6.580e-001 	             	
        20.769	             	  7.870e-003 	
        20.801	  6.580e-001 	             	
        20.833	             	  7.850e-003 	
        20.864	  6.580e-001 	             	
        20.896	             	  7.830e-003 	
        20.929	  6.580e-001 	             	
        20.992	  6.580e-001 	  7.800e-003 	
        21.057	  6.580e-001 	  7.780e-003 	
        21.121	  6.580e-001 	  7.750e-003 	
        21.185	             	  7.730e-003 	
        21.217	  6.580e-001 	             	
        21.248	             	  7.700e-003 	
        21.281	  6.580e-001 	             	
        21.313	             	  7.670e-003 	
        21.345	  6.580e-001 	             	
        21.376	             	  7.630e-003 	
        21.408	  6.580e-001 	             	
        21.441	             	  7.600e-003 	
        21.472	  6.580e-001 	             	
        21.505	             	  7.570e-003 	
        21.537	  6.580e-001 	             	
        21.569	             	  7.530e-003 	
        21.601	  6.580e-001 	             	
        21.633	             	  7.500e-003 	
        21.665	  6.580e-001 	             	
        21.696	             	  7.460e-003 	
        21.728	  6.580e-001 	             	
        21.793	  6.580e-001 	  7.420e-003 	
        21.857	  6.580e-001 	  7.380e-003 	
        21.921	  6.580e-001 	  7.330e-003 	
        21.984	             	  7.290e-003 	
        22.017	  6.580e-001 	             	
        22.049	             	  7.240e-003 	
        22.081	  6.580e-001 	             	
        22.113	             	  7.190e-003 	
        22.145	  6.580e-001 	             	
        22.177	             	  7.150e-003 	
        22.209	  6.580e-001 	             	
        22.241	             	  7.090e-003 	
        22.273	  6.580e-001 	             	
        22.305	             	  7.040e-003 	
        22.336	  6.580e-001 	             	
        22.369	             	  6.990e-003 	
        22.401	  6.580e-001 	             	
        22.433	             	  6.930e-003 	
        22.465	  6.580e-001 	             	
        22.497	             	  6.870e-003 	
        22.529	  6.580e-001 	             	
        22.593	  6.580e-001 	  6.810e-003 	
        22.656	  6.580e-001 	             	
        22.657	             	  6.750e-003 	
        22.721	  6.580e-001 	  6.690e-003 	
        22.785	             	  6.630e-003 	
        22.817	  6.580e-001 	             	
        22.848	             	  6.560e-003 	
        22.881	  6.580e-001 	             	
        22.913	             	  6.500e-003 	
        22.945	  6.580e-001 	             	
        22.977	             	  6.440e-003 	
        23.009	  6.580e-001 	             	
        23.040	             	  6.380e-003 	
        23.073	  6.580e-001 	             	
        23.105	             	  6.310e-003 	
        23.137	  6.580e-001 	             	
        23.169	             	  6.250e-003 	
        23.201	  6.580e-001 	             	
        23.232	             	  6.190e-003 	
        23.265	  6.580e-001 	             	
        23.297	             	  6.130e-003 	
        23.329	  6.580e-001 	             	
        23.393	  6.580e-001 	  6.080e-003 	
        23.456	  6.580e-001 	  6.020e-003 	
        23.521	  6.580e-001 	  5.970e-003 	
        23.585	             	  5.920e-003 	
        23.617	  6.580e-001 	             	
        23.649	             	  5.870e-003 	
        23.681	  6.580e-001 	             	
        23.713	             	  5.820e-003 	
        23.744	  6.580e-001 	             	
        23.777	             	  5.770e-003 	
        23.808	  6.580e-001 	             	
        23.841	             	  5.730e-003 	
        23.872	  6.580e-001 	             	
        23.905	             	  5.690e-003 	
        23.937	  6.580e-001 	             	
        23.969	             	  5.650e-003 	
        24.000	  6.580e-001 	             	
        24.033	             	  5.610e-003 	
        24.065	  6.580e-001 	             	
        24.097	             	  5.570e-003 	
        24.128	  6.580e-001 	             	
        24.193	  6.580e-001 	  5.540e-003 	
        24.257	  6.580e-001 	  5.500e-003 	
        24.321	  6.580e-001 	  5.470e-003 	
        24.384	             	  5.440e-003 	
        24.416	  6.580e-001 	             	
        24.448	             	  5.420e-003 	
        24.481	  6.580e-001 	             	
        24.512	             	  5.390e-003 	
        24.545	  6.580e-001 	             	
        24.577	             	  5.370e-003 	
        24.608	  6.580e-001 	             	
        24.641	             	  5.350e-003 	
        24.673	  6.580e-001 	             	
        24.705	             	  5.330e-003 	
        24.737	  6.580e-001 	             	
        24.769	             	  5.310e-003 	
        24.801	  6.580e-001 	             	
        24.832	             	  5.290e-003 	
        24.865	  6.580e-001 	             	
        24.897	             	  5.270e-003 	
        24.929	  6.580e-001 	             	
        24.992	  6.580e-001 	  5.260e-003 	
        25.057	  6.580e-001 	  5.250e-003 	
        25.121	  6.580e-001 	  5.230e-003 	
        25.185	             	  5.220e-003 	
        25.217	  6.580e-001 	             	
        25.249	             	  5.210e-003 	
        25.281	  6.580e-001 	             	
        25.313	             	  5.200e-003 	
        25.345	  6.580e-001 	             	
        25.377	             	  5.190e-003 	
        25.409	  6.580e-001 	             	
        25.441	             	  5.190e-003 	
        25.473	  6.580e-001 	             	
        25.505	             	  5.180e-003 	
        25.537	  6.580e-001 	             	
        25.569	             	  5.170e-003 	
        25.601	  6.580e-001 	             	
        25.633	             	  5.170e-003 	
        25.665	  6.580e-001 	             	
        25.697	             	  5.170e-003 	
        25.729	  6.580e-001 	             	
        25.793	  6.580e-001 	  5.160e-003 	
        25.857	  6.580e-001 	  5.160e-003 	
        25.921	  6.580e-001 	  5.160e-003 	
        25.984	             	  5.160e-003 	
        26.017	  6.580e-001 	             	
        26.049	             	  5.160e-003 	
        26.081	  6.580e-001 	             	
        26.113	             	  5.160e-003 	
        26.145	  6.580e-001 	             	
        26.177	             	  5.160e-003 	
        26.209	  6.580e-001 	             	
        26.241	             	  5.160e-003 	
        26.273	  6.580e-001 	             	
        26.305	             	  5.160e-003 	
        26.337	  6.580e-001 	             	
        26.369	             	  5.160e-003 	
        26.401	  6.580e-001 	             	
        26.433	             	  5.160e-003 	
        26.465	  6.580e-001 	             	
        26.497	             	  5.170e-003 	
        26.529	  6.580e-001 	             	
        26.593	  6.580e-001 	  5.170e-003 	
        26.657	  6.580e-001 	  5.170e-003 	
        26.720	  6.580e-001 	  5.170e-003 	
        26.784	             	  5.170e-003 	
        26.816	  6.580e-001 	             	
        26.848	             	  5.170e-003 	
        26.881	  6.580e-001 	             	
        26.913	             	  5.180e-003 	
        26.945	  6.580e-001 	             	
        26.977	             	  5.180e-003 	
        27.009	  6.580e-001 	             	
        27.041	             	  5.180e-003 	
        27.072	  6.580e-001 	             	
        27.105	             	  5.180e-003 	
        27.137	  6.580e-001 	             	
        27.169	             	  5.190e-003 	
        27.201	  6.580e-001 	             	
        27.233	             	  5.190e-003 	
        27.265	  6.580e-001 	             	
        27.297	             	  5.190e-003 	
        27.329	  6.580e-001 	             	
        27.393	  6.580e-001 	  5.200e-003 	
        27.457	  6.580e-001 	  5.200e-003 	
        27.521	  6.580e-001 	  5.200e-003 	
        27.585	             	  5.210e-003 	
        27.617	  6.580e-001 	             	
        27.649	             	  5.210e-003 	
        27.681	  6.580e-001 	             	
        27.713	             	  5.210e-003 	
        27.745	  6.580e-001 	             	
        27.777	             	  5.220e-003 	
        27.809	  6.580e-001 	             	
        27.841	             	  5.220e-003 	
        27.873	  6.580e-001 	             	
        27.905	             	  5.230e-003 	
        27.937	  6.580e-001 	             	
        27.969	             	  5.230e-003 	
        28.001	  6.580e-001 	             	
        28.033	             	  5.240e-003 	
        28.065	  6.580e-001 	             	
        28.097	             	  5.240e-003 	
        28.129	  6.580e-001 	             	
        28.193	  6.580e-001 	  5.240e-003 	
        28.257	  6.580e-001 	  5.250e-003 	
        28.321	  6.580e-001 	  5.250e-003 	
        28.385	             	  5.260e-003 	
        28.417	  6.580e-001 	             	
        28.449	             	  5.260e-003 	
        28.481	  6.580e-001 	             	
        28.513	             	  5.260e-003 	
        28.544	  6.580e-001 	             	
        28.577	             	  5.270e-003 	
        28.609	  6.580e-001 	             	
        28.641	             	  5.270e-003 	
        28.673	  6.580e-001 	             	
        28.705	             	  5.280e-003 	
        28.737	  6.580e-001 	             	
        28.769	             	  5.280e-003 	
        28.801	  6.580e-001 	             	
        28.833	             	  5.290e-003 	
        28.865	  6.580e-001 	             	
        28.897	             	  5.290e-003 	
        28.929	  6.580e-001 	             	
        28.993	  6.580e-001 	  5.300e-003 	
        29.057	  6.580e-001 	  5.300e-003 	
        29.121	  6.580e-001 	  5.310e-003 	
        29.185	             	  5.310e-003 	
        29.217	  6.580e-001 	             	
        29.249	             	  5.320e-003 	
        29.281	  6.580e-001 	             	
        29.313	             	  5.320e-003 	
        29.344	  6.580e-001 	             	
        29.377	             	  5.330e-003 	
        29.409	  6.580e-001 	             	
        29.441	             	  5.330e-003 	
        29.473	  6.580e-001 	             	
        29.505	             	  5.330e-003 	
        29.537	  6.580e-001 	             	
        29.569	             	  5.340e-003 	
        29.601	  6.580e-001 	             	
        29.633	             	  5.340e-003 	
        29.665	  6.580e-001 	             	
        29.697	             	  5.350e-003 	
        29.729	  6.580e-001 	             	
        29.793	  6.580e-001 	  5.350e-003 	
        29.857	  6.580e-001 	  5.350e-003 	
        29.920	  6.580e-001 	  5.350e-003 	
        29.985	  6.580e-001 	  5.360e-003 	
        30.049	             	  5.360e-003 	
        30.081	  6.580e-001 	             	
        30.113	             	  5.360e-003 	
        30.145	  6.580e-001 	             	
        30.176	             	  5.370e-003 	
        30.209	  6.580e-001 	             	
        30.240	             	  5.370e-003 	
        30.273	  6.580e-001 	             	
        30.305	             	  5.370e-003 	
        30.337	  6.580e-001 	             	
        30.369	             	  5.380e-003 	
        30.401	  6.580e-001 	             	
        30.433	             	  5.380e-003 	
        30.465	  6.580e-001 	             	
        30.497	             	  5.380e-003 	
        30.529	  6.580e-001 	             	
        30.593	  6.580e-001 	  5.380e-003 	
        30.657	  6.580e-001 	  5.390e-003 	
        30.721	  6.580e-001 	  5.390e-003 	
        30.784	  6.580e-001 	  5.390e-003 	
        30.849	             	  5.400e-003 	
        30.881	  6.580e-001 	             	
        30.913	             	  5.400e-003 	
        30.945	  6.580e-001 	             	
        30.977	             	  5.400e-003 	
        31.009	  6.580e-001 	             	
        31.041	             	  5.410e-003 	
        31.073	  6.580e-001 	             	
        31.104	             	  5.410e-003 	
        31.136	  6.580e-001 	             	
        31.169	             	  5.410e-003 	
        31.201	  6.580e-001 	             	
        31.233	             	  5.420e-003 	
        31.265	  6.580e-001 	             	
        31.297	             	  5.420e-003 	
        31.329	  6.580e-001 	             	
        31.361	             	  5.420e-003 	
        31.393	  6.580e-001 	             	
        31.456	  6.580e-001 	  5.430e-003 	
        31.521	  6.580e-001 	  5.430e-003 	
        31.585	  6.580e-001 	  5.430e-003 	
        31.649	             	  5.440e-003 	
        31.681	  6.580e-001 	             	
        31.713	             	  5.440e-003 	
        31.745	  6.580e-001 	             	
        31.777	             	  5.440e-003 	
        31.809	  6.580e-001 	             	
        31.841	             	  5.450e-003 	
        31.873	  6.580e-001 	             	
        31.905	             	  5.450e-003 	
        31.937	  6.580e-001 	             	
        31.968	             	  5.450e-003 	
        32.000	  6.580e-001 	             	
        32.033	             	  5.450e-003 	
        32.065	  6.580e-001 	             	
        32.096	             	  5.460e-003 	
        32.129	  6.580e-001 	             	
        32.161	             	  5.460e-003 	
        32.193	  6.580e-001 	             	
        32.257	  6.580e-001 	  5.460e-003 	
        32.320	  6.580e-001 	  5.460e-003 	
        32.385	  6.580e-001 	  5.470e-003 	
        32.449	             	  5.470e-003 	
        32.481	  6.580e-001 	             	
        32.513	             	  5.470e-003 	
        32.545	  6.580e-001 	             	
        32.577	             	  5.470e-003 	
        32.609	  6.580e-001 	             	
        32.641	             	  5.470e-003 	
        32.673	  6.580e-001 	             	
        32.704	             	  5.480e-003 	
        32.736	  6.580e-001 	             	
        32.769	             	  5.480e-003 	
        32.801	  6.580e-001 	             	
        32.833	             	  5.480e-003 	
        32.865	  6.580e-001 	             	
        32.897	             	  5.480e-003 	
        32.929	  6.580e-001 	             	
        32.961	             	  5.480e-003 	
        32.993	  6.580e-001 	             	
        33.057	  6.580e-001 	  5.480e-003 	
        33.121	  6.580e-001 	  5.490e-003 	
        33.185	  6.580e-001 	  5.490e-003 	
        33.249	             	  5.490e-003 	
        33.281	  6.580e-001 	             	
        33.313	             	  5.490e-003 	
        33.344	  6.580e-001 	             	
        33.377	             	  5.500e-003 	
        33.409	  6.580e-001 	             	
        33.441	             	  5.500e-003 	
        33.473	  6.580e-001 	             	
        33.505	             	  5.500e-003 	
        33.537	  6.580e-001 	             	
        33.568	             	  5.500e-003 	
        33.601	  6.580e-001 	             	
        33.633	             	  5.510e-003 	
        33.665	  6.580e-001 	             	
        33.697	             	  5.510e-003 	
        33.729	  6.580e-001 	             	
        33.760	             	  5.510e-003 	
        33.793	  6.580e-001 	             	
        33.857	  6.580e-001 	  5.510e-003 	
        33.921	  6.580e-001 	  5.520e-003 	
        33.985	  6.580e-001 	  5.520e-003 	
        34.048	             	  5.520e-003 	
        34.080	  6.580e-001 	             	
        34.113	             	  5.520e-003 	
        34.145	  6.580e-001 	             	
        34.176	             	  5.520e-003 	
        34.209	  6.580e-001 	             	
        34.241	             	  5.530e-003 	
        34.273	  6.580e-001 	             	
        34.305	             	  5.530e-003 	
        34.337	  6.580e-001 	             	
        34.369	             	  5.530e-003 	
        34.401	  6.580e-001 	             	
        34.433	             	  5.530e-003 	
        34.465	  6.580e-001 	             	
        34.497	             	  5.530e-003 	
        34.529	  6.580e-001 	             	
        34.561	             	  5.540e-003 	
        34.593	  6.580e-001 	             	
        34.657	  6.580e-001 	  5.540e-003 	
        34.720	  6.580e-001 	  5.540e-003 	
        34.785	  6.580e-001 	  5.540e-003 	
        34.849	             	  5.540e-003 	
        34.881	  6.580e-001 	             	
        34.913	             	  5.540e-003 	
        34.945	  6.580e-001 	             	
        34.977	             	  5.550e-003 	
        35.008	  6.580e-001 	             	
        35.041	             	  5.550e-003 	
        35.073	  6.580e-001 	             	
        35.104	             	  5.550e-003 	
        35.137	  6.580e-001 	             	
        35.169	             	  5.550e-003 	
        35.201	  6.580e-001 	             	
        35.233	             	  5.550e-003 	
        35.265	  6.580e-001 	             	
        35.297	             	  5.560e-003 	
        35.329	  6.580e-001 	             	
        35.360	             	  5.560e-003 	
        35.393	  6.580e-001 	             	
        35.457	  6.580e-001 	  5.560e-003 	
        35.520	  6.580e-001 	  5.560e-003 	
        35.585	  6.580e-001 	  5.570e-003 	
        35.649	             	  5.570e-003 	
        35.681	  6.580e-001 	             	
        35.713	             	  5.570e-003 	
        35.745	  6.580e-001 	             	
        35.776	             	  5.570e-003 	
        35.809	  6.580e-001 	             	
        35.841	             	  5.570e-003 	
        35.873	  6.580e-001 	             	
        35.905	             	  5.580e-003 	
        35.937	  6.580e-001 	             	
        35.969	             	  5.580e-003 	
        36.001	  6.580e-001 	             	
        36.032	             	  5.580e-003 	
        36.065	  6.580e-001 	             	
        36.097	             	  5.580e-003 	
        36.129	  6.580e-001 	             	
        36.161	             	  5.580e-003 	
        36.193	  6.580e-001 	             	
        36.257	  6.580e-001 	  5.590e-003 	
        36.321	  6.580e-001 	  5.590e-003 	
        36.385	  6.580e-001 	  5.590e-003 	
        36.449	             	  5.590e-003 	
        36.481	  6.580e-001 	             	
        36.513	             	  5.590e-003 	
        36.545	  6.580e-001 	             	
        36.577	             	  5.600e-003 	
        36.609	  6.580e-001 	             	
        36.640	             	  5.600e-003 	
        36.673	  6.580e-001 	             	
        36.705	             	  5.600e-003 	
        36.737	  6.580e-001 	             	
        36.768	             	  5.600e-003 	
        36.801	  6.580e-001 	             	
        36.833	             	  5.610e-003 	
        36.865	  6.580e-001 	             	
        36.897	             	  5.610e-003 	
        36.929	  6.580e-001 	             	
        36.960	             	  5.610e-003 	
        36.993	  6.580e-001 	             	
        37.057	  6.580e-001 	  5.610e-003 	
        37.121	  6.580e-001 	  5.620e-003 	
        37.185	  6.580e-001 	  5.620e-003 	
        37.249	             	  5.620e-003 	
        37.281	  6.580e-001 	             	
        37.313	             	  5.620e-003 	
        37.344	  6.580e-001 	             	
        37.377	             	  5.620e-003 	
        37.409	  6.580e-001 	             	
        37.441	             	  5.630e-003 	
        37.473	  6.580e-001 	             	
        37.505	             	  5.630e-003 	
        37.537	  6.580e-001 	             	
        37.569	             	  5.630e-003 	
        37.601	  6.580e-001 	             	
        37.633	             	  5.630e-003 	
        37.665	  6.580e-001 	             	
        37.697	             	  5.630e-003 	
        37.729	  6.580e-001 	             	
        37.761	             	  5.630e-003 	
        37.793	  6.580e-001 	             	
        37.857	  6.580e-001 	  5.640e-003 	
        37.921	  6.580e-001 	  5.640e-003 	
        37.985	  6.580e-001 	  5.640e-003 	
        38.049	             	  5.640e-003 	
        38.081	  6.580e-001 	             	
        38.113	             	  5.640e-003 	
        38.145	  6.580e-001 	             	
        38.177	             	  5.640e-003 	
        38.209	  6.580e-001 	             	
        38.241	             	  5.650e-003 	
        38.273	  6.580e-001 	             	
        38.305	             	  5.650e-003 	
        38.337	  6.580e-001 	             	
        38.369	             	  5.650e-003 	
        38.401	  6.580e-001 	             	
        38.433	             	  5.650e-003 	
        38.465	  6.580e-001 	             	
        38.497	             	  5.660e-003 	
        38.529	  6.580e-001 	             	
        38.561	             	  5.660e-003 	
        38.593	  6.580e-001 	             	
        38.657	  6.580e-001 	  5.660e-003 	
        38.720	  6.580e-001 	  5.660e-003 	
        38.785	  6.580e-001 	  5.670e-003 	
        38.849	             	  5.670e-003 	
        38.881	  6.580e-001 	             	
        38.913	             	  5.670e-003 	
        38.944	  6.580e-001 	             	
        38.977	             	  5.680e-003 	
        39.009	  6.580e-001 	             	
        39.041	             	  5.680e-003 	
        39.073	  6.580e-001 	             	
        39.105	             	  5.680e-003 	
        39.137	  6.580e-001 	             	
        39.169	             	  5.680e-003 	
        39.201	  6.580e-001 	             	
        39.233	             	  5.680e-003 	
        39.264	  6.580e-001 	             	
        39.297	             	  5.690e-003 	
        39.329	  6.580e-001 	             	
        39.361	             	  5.690e-003 	
        39.393	  6.580e-001 	             	
        39.457	  6.580e-001 	  5.690e-003 	
        39.521	  6.580e-001 	  5.690e-003 	
        39.585	  6.580e-001 	  5.690e-003 	
        39.649	             	  5.690e-003 	
        39.681	  6.580e-001 	             	
        39.712	             	  5.690e-003 	
        39.745	  6.580e-001 	             	
        39.777	             	  5.690e-003 	
        39.809	  6.580e-001 	             	
        39.841	             	  5.700e-003 	
        39.873	  6.580e-001 	             	
        39.905	             	  5.700e-003 	
        39.937	  6.580e-001 	             	
        39.968	             	  5.700e-003 	
        40.001	  6.580e-001 	             	
        40.033	             	  5.700e-003 	
        40.065	  6.580e-001 	             	
        40.096	             	  5.700e-003 	
        40.129	  6.580e-001 	             	
        40.161	             	  5.700e-003 	
        40.193	  6.580e-001 	             	
        40.257	  6.580e-001 	  5.700e-003 	
        40.321	  6.580e-001 	  5.710e-003 	
        40.384	  6.580e-001 	  5.710e-003 	
        40.449	             	  5.710e-003 	
        40.480	  6.580e-001 	             	
        40.513	             	  5.710e-003 	
        40.545	  6.580e-001 	             	
        40.577	             	  5.710e-003 	
        40.609	  6.580e-001 	             	
        40.641	             	  5.710e-003 	
        40.673	  6.580e-001 	             	
        40.705	             	  5.720e-003 	
        40.737	  6.580e-001 	             	
        40.768	             	  5.720e-003 	
        40.800	  6.580e-001 	             	
        40.833	             	  5.720e-003 	
        40.865	  6.580e-001 	             	
        40.897	             	  5.720e-003 	
        40.929	  6.580e-001 	             	
        40.961	             	  5.720e-003 	
        40.993	  6.580e-001 	             	
        41.057	  6.580e-001 	  5.730e-003 	
        41.121	  6.580e-001 	  5.730e-003 	
        41.185	  6.580e-001 	  5.730e-003 	
        41.249	             	  5.730e-003 	
        41.281	  6.580e-001 	             	
        41.313	             	  5.740e-003 	
        41.344	  6.580e-001 	             	
        41.377	             	  5.740e-003 	
        41.409	  6.580e-001 	             	
        41.441	             	  5.740e-003 	
        41.473	  6.580e-001 	             	
        41.505	             	  5.740e-003 	
        41.536	  6.580e-001 	             	
        41.569	             	  5.740e-003 	
        41.601	  6.580e-001 	             	
        41.633	             	  5.750e-003 	
        41.665	  6.580e-001 	             	
        41.697	             	  5.750e-003 	
        41.729	  6.580e-001 	             	
        41.761	             	  5.750e-003 	
        41.793	  6.580e-001 	             	
        41.857	  6.580e-001 	  5.750e-003 	
        41.921	  6.580e-001 	  5.750e-003 	
        41.985	  6.580e-001 	  5.750e-003 	
        42.049	  6.580e-001 	  5.750e-003 	
        42.112	             	  5.760e-003 	
        42.145	  6.580e-001 	             	
        42.177	             	  5.760e-003 	
