;PC Software:StarLab Version 3.30 Build 10
! ******* Warning: Do not modify this file. Changes may prevent   ********
! ******* the StarLab Log reader from opening the file correctly. ********
;Logged:23/03/2021 at 12:00:17
;File Version:5
;Time Resolution:1 microseconds
;Log Settings:Stop after:period: 00:05:00
;Graph Mode:Split
;Notes:                                                            

;Channel A:Vega Thermopile 3A (s/n:940606)  VG2.52 (s/n:946462)
;Channel B:Vega Thermopile 3A (s/n:947746)  VG2.52 (s/n:946463)

;Channel A:Details
;Name:3A
;Graph Type:Line
;Graph Color:RGB(14,104,168)
;Units:W
;Settings:Measuring:Power
;Settings:Wavelength:532
;Settings:Range:AUTO

;Channel B:Details
;Name:3A
;Graph Type:Line
;Graph Color:RGB(245,86,16)
;Units:W
;Settings:Measuring:Power
;Settings:Wavelength:532
;Settings:Range:AUTO

;Channel A:Statistics
;Min:85.60mW             
;Max:86.10mW             
;Average:85.81mW             
;Std.Dev.:103.2uW             
;Overrange:0                   

;Channel B:Statistics
;Min:126.6uW             
;Max:964.0uW             
;Average:414.6uW             
;Std.Dev.:250.9uW             
;Overrange:0                   
;--------------------


;First Pulse Arrived : 23/03/2021 at 12:00:17.394000
  Timestamp   	  Channel A  	  Channel B  	
         0.000	             	  1.597e-004 	
         0.033	  8.600e-002 	             	
         0.065	             	  1.604e-004 	
         0.096	  8.600e-002 	             	
         0.160	  8.600e-002 	  1.612e-004 	
         0.224	  8.600e-002 	  1.621e-004 	
         0.288	  8.600e-002 	  1.629e-004 	
         0.352	  8.610e-002 	  1.638e-004 	
         0.416	  8.610e-002 	  1.646e-004 	
         0.480	             	  1.654e-004 	
         0.512	  8.610e-002 	             	
         0.544	             	  1.663e-004 	
         0.577	  8.610e-002 	             	
         0.608	             	  1.671e-004 	
         0.640	  8.610e-002 	             	
         0.672	             	  1.678e-004 	
         0.704	  8.610e-002 	             	
         0.736	             	  1.685e-004 	
         0.768	  8.610e-002 	             	
         0.800	             	  1.691e-004 	
         0.832	  8.610e-002 	             	
         0.864	             	  1.698e-004 	
         0.896	  8.610e-002 	             	
         0.928	             	  1.703e-004 	
         0.960	  8.610e-002 	             	
         1.024	  8.610e-002 	  1.709e-004 	
         1.088	  8.610e-002 	  1.714e-004 	
         1.152	  8.610e-002 	  1.718e-004 	
         1.216	  8.610e-002 	  1.720e-004 	
         1.280	             	  1.721e-004 	
         1.313	  8.610e-002 	             	
         1.344	             	  1.722e-004 	
         1.376	  8.600e-002 	             	
         1.408	             	  1.722e-004 	
         1.440	  8.600e-002 	             	
         1.472	             	  1.722e-004 	
         1.504	  8.600e-002 	             	
         1.536	             	  1.722e-004 	
         1.568	  8.590e-002 	             	
         1.600	             	  1.723e-004 	
         1.632	  8.590e-002 	             	
         1.664	             	  1.725e-004 	
         1.696	  8.590e-002 	             	
         1.728	             	  1.728e-004 	
         1.760	  8.590e-002 	             	
         1.825	  8.590e-002 	  1.731e-004 	
         1.888	  8.590e-002 	  1.734e-004 	
         1.952	  8.590e-002 	  1.737e-004 	
         2.017	  8.590e-002 	  1.740e-004 	
         2.080	             	  1.741e-004 	
         2.112	  8.590e-002 	             	
         2.144	             	  1.742e-004 	
         2.176	  8.590e-002 	             	
         2.208	             	  1.741e-004 	
         2.240	  8.590e-002 	             	
         2.272	             	  1.738e-004 	
         2.304	  8.590e-002 	             	
         2.336	             	  1.735e-004 	
         2.369	  8.590e-002 	             	
         2.400	             	  1.732e-004 	
         2.432	  8.590e-002 	             	
         2.464	             	  1.731e-004 	
         2.497	  8.590e-002 	             	
         2.528	             	  1.732e-004 	
         2.560	  8.590e-002 	             	
         2.624	  8.590e-002 	  1.734e-004 	
         2.688	  8.590e-002 	  1.738e-004 	
         2.752	  8.590e-002 	  1.743e-004 	
         2.816	  8.600e-002 	  1.749e-004 	
         2.880	             	  1.756e-004 	
         2.913	  8.600e-002 	             	
         2.944	             	  1.764e-004 	
         2.977	  8.600e-002 	             	
         3.008	             	  1.773e-004 	
         3.040	  8.600e-002 	             	
         3.072	             	  1.783e-004 	
         3.105	  8.590e-002 	             	
         3.136	             	  1.794e-004 	
         3.168	  8.590e-002 	             	
         3.201	             	  1.806e-004 	
         3.233	  8.590e-002 	             	
         3.265	             	  1.819e-004 	
         3.296	  8.590e-002 	             	
         3.328	             	  1.833e-004 	
         3.360	  8.590e-002 	             	
         3.425	  8.590e-002 	  1.847e-004 	
         3.488	  8.580e-002 	  1.860e-004 	
         3.552	  8.590e-002 	  1.874e-004 	
         3.617	  8.590e-002 	  1.886e-004 	
         3.680	             	  1.897e-004 	
         3.712	  8.590e-002 	             	
         3.744	             	  1.906e-004 	
         3.776	  8.590e-002 	             	
         3.808	             	  1.914e-004 	
         3.840	  8.590e-002 	             	
         3.872	             	  1.920e-004 	
         3.904	  8.590e-002 	             	
         3.936	             	  1.926e-004 	
         3.968	  8.590e-002 	             	
         4.000	             	  1.933e-004 	
         4.032	  8.590e-002 	             	
         4.064	             	  1.940e-004 	
         4.096	  8.590e-002 	             	
         4.129	             	  1.948e-004 	
         4.161	  8.590e-002 	             	
         4.224	  8.590e-002 	  1.956e-004 	
         4.288	  8.590e-002 	  1.964e-004 	
         4.352	  8.590e-002 	  1.972e-004 	
         4.417	  8.590e-002 	  1.979e-004 	
         4.480	             	  1.985e-004 	
         4.512	  8.590e-002 	             	
         4.544	             	  1.989e-004 	
         4.576	  8.590e-002 	             	
         4.608	             	  1.994e-004 	
         4.641	  8.590e-002 	             	
         4.672	             	  1.999e-004 	
         4.705	  8.590e-002 	             	
         4.736	             	  2.004e-004 	
         4.768	  8.590e-002 	             	
         4.801	             	  2.010e-004 	
         4.833	  8.590e-002 	             	
         4.864	             	  2.018e-004 	
         4.896	  8.590e-002 	             	
         4.928	             	  2.029e-004 	
         4.960	  8.590e-002 	             	
         5.024	  8.590e-002 	  2.041e-004 	
         5.088	  8.590e-002 	  2.055e-004 	
         5.152	  8.590e-002 	  2.069e-004 	
         5.216	  8.590e-002 	  2.085e-004 	
         5.280	             	  2.102e-004 	
         5.312	  8.590e-002 	             	
         5.344	             	  2.120e-004 	
         5.377	  8.590e-002 	             	
         5.409	             	  2.139e-004 	
         5.440	  8.590e-002 	             	
         5.472	             	  2.159e-004 	
         5.504	  8.590e-002 	             	
         5.536	             	  2.179e-004 	
         5.568	  8.580e-002 	             	
         5.601	             	  2.199e-004 	
         5.632	  8.580e-002 	             	
         5.665	             	  2.220e-004 	
         5.697	  8.580e-002 	             	
         5.728	             	  2.240e-004 	
         5.760	  8.580e-002 	             	
         5.824	  8.580e-002 	  2.260e-004 	
         5.888	  8.570e-002 	  2.280e-004 	
         5.952	  8.570e-002 	  2.300e-004 	
         6.016	  8.570e-002 	  2.319e-004 	
         6.080	             	  2.338e-004 	
         6.112	  8.570e-002 	             	
         6.144	             	  2.356e-004 	
         6.176	  8.570e-002 	             	
         6.208	             	  2.373e-004 	
         6.240	  8.570e-002 	             	
         6.272	             	  2.390e-004 	
         6.304	  8.570e-002 	             	
         6.336	             	  2.407e-004 	
         6.368	  8.570e-002 	             	
         6.400	             	  2.423e-004 	
         6.433	  8.570e-002 	             	
         6.465	             	  2.439e-004 	
         6.497	  8.580e-002 	             	
         6.528	             	  2.455e-004 	
         6.560	  8.580e-002 	             	
         6.624	  8.580e-002 	  2.472e-004 	
         6.688	  8.580e-002 	  2.489e-004 	
         6.752	  8.580e-002 	  2.506e-004 	
         6.816	  8.590e-002 	  2.524e-004 	
         6.881	             	  2.541e-004 	
         6.913	  8.590e-002 	             	
         6.944	             	  2.557e-004 	
         6.977	  8.590e-002 	             	
         7.008	             	  2.573e-004 	
         7.041	  8.590e-002 	             	
         7.072	             	  2.589e-004 	
         7.105	  8.590e-002 	             	
         7.136	             	  2.605e-004 	
         7.168	  8.590e-002 	             	
         7.200	             	  2.620e-004 	
         7.233	  8.590e-002 	             	
         7.264	             	  2.635e-004 	
         7.296	  8.590e-002 	             	
         7.328	             	  2.650e-004 	
         7.360	  8.590e-002 	             	
         7.424	  8.590e-002 	  2.665e-004 	
         7.489	  8.590e-002 	  2.680e-004 	
         7.552	  8.590e-002 	  2.696e-004 	
         7.616	  8.590e-002 	  2.712e-004 	
         7.681	             	  2.728e-004 	
         7.713	  8.590e-002 	             	
         7.744	             	  2.745e-004 	
         7.777	  8.590e-002 	             	
         7.808	             	  2.763e-004 	
         7.840	  8.590e-002 	             	
         7.873	             	  2.781e-004 	
         7.905	  8.590e-002 	             	
         7.936	             	  2.799e-004 	
         7.968	  8.590e-002 	             	
         8.000	             	  2.818e-004 	
         8.032	  8.590e-002 	             	
         8.064	             	  2.837e-004 	
         8.096	  8.590e-002 	             	
         8.128	             	  2.856e-004 	
         8.160	  8.590e-002 	             	
         8.225	  8.590e-002 	  2.875e-004 	
         8.288	  8.590e-002 	  2.893e-004 	
         8.352	  8.590e-002 	  2.911e-004 	
         8.417	  8.590e-002 	  2.929e-004 	
         8.481	             	  2.947e-004 	
         8.512	  8.590e-002 	             	
         8.545	             	  2.964e-004 	
         8.576	  8.600e-002 	             	
         8.608	             	  2.982e-004 	
         8.640	  8.600e-002 	             	
         8.704	  8.600e-002 	             	
         8.769	  8.600e-002 	             	
         8.833	  8.600e-002 	             	
         8.897	  8.590e-002 	             	
         8.960	  8.590e-002 	             	
         9.025	  8.590e-002 	             	
         9.088	  8.590e-002 	             	
         9.152	  8.590e-002 	             	
         9.216	  8.590e-002 	             	
         9.280	  8.590e-002 	             	
         9.376	  8.590e-002 	             	
         9.441	  8.590e-002 	             	
         9.504	  8.590e-002 	             	
         9.568	  8.590e-002 	             	
         9.633	  8.590e-002 	             	
         9.697	  8.590e-002 	             	
         9.760	  8.590e-002 	             	
         9.825	  8.590e-002 	             	
         9.888	  8.590e-002 	             	
         9.952	  8.590e-002 	  3.430e-004 	
        10.017	  8.590e-002 	  3.550e-004 	
        10.080	  8.590e-002 	  3.650e-004 	
        10.144	             	  3.730e-004 	
        10.177	  8.590e-002 	             	
        10.208	             	  3.790e-004 	
        10.241	  8.590e-002 	             	
        10.272	             	  3.840e-004 	
        10.304	  8.590e-002 	             	
        10.336	             	  3.870e-004 	
        10.368	  8.590e-002 	             	
        10.400	             	  3.880e-004 	
        10.433	  8.590e-002 	             	
        10.465	             	  3.890e-004 	
        10.497	  8.590e-002 	             	
        10.528	             	  3.890e-004 	
        10.561	  8.600e-002 	             	
        10.624	  8.600e-002 	  3.890e-004 	
        10.688	  8.600e-002 	  3.880e-004 	
        10.752	  8.600e-002 	  3.880e-004 	
        10.817	  8.600e-002 	  3.870e-004 	
        10.880	  8.600e-002 	  3.870e-004 	
        10.944	             	  3.860e-004 	
        10.976	  8.600e-002 	             	
        11.008	             	  3.860e-004 	
        11.040	  8.600e-002 	             	
        11.073	             	  3.860e-004 	
        11.104	  8.600e-002 	             	
        11.136	             	  3.860e-004 	
        11.168	  8.600e-002 	             	
        11.201	             	  3.860e-004 	
        11.232	  8.600e-002 	             	
        11.264	             	  3.870e-004 	
        11.297	  8.600e-002 	             	
        11.329	             	  3.880e-004 	
        11.360	  8.600e-002 	             	
        11.425	  8.600e-002 	  3.890e-004 	
        11.488	  8.600e-002 	  3.900e-004 	
        11.552	  8.600e-002 	  3.920e-004 	
        11.616	  8.600e-002 	             	
        11.617	             	  3.930e-004 	
        11.680	  8.590e-002 	             	
        11.681	             	  3.950e-004 	
        11.744	             	  3.970e-004 	
        11.776	  8.590e-002 	             	
        11.808	             	  3.990e-004 	
        11.840	  8.590e-002 	             	
        11.872	             	  4.010e-004 	
        11.904	  8.590e-002 	             	
        11.936	             	  4.040e-004 	
        11.968	  8.590e-002 	             	
        12.000	             	  4.060e-004 	
        12.033	  8.590e-002 	             	
        12.064	             	  4.090e-004 	
        12.096	  8.590e-002 	             	
        12.129	             	  4.110e-004 	
        12.160	  8.590e-002 	             	
        12.224	  8.590e-002 	  4.140e-004 	
        12.288	  8.590e-002 	  4.170e-004 	
        12.352	  8.590e-002 	  4.200e-004 	
        12.416	  8.590e-002 	  4.230e-004 	
        12.480	  8.590e-002 	  4.260e-004 	
        12.544	             	  4.290e-004 	
        12.577	  8.590e-002 	             	
        12.608	             	  4.320e-004 	
        12.640	  8.590e-002 	             	
        12.672	             	  4.350e-004 	
        12.705	  8.580e-002 	             	
        12.736	             	  4.390e-004 	
        12.768	  8.580e-002 	             	
        12.800	             	  4.420e-004 	
        12.832	  8.580e-002 	             	
        12.864	             	  4.450e-004 	
        12.897	  8.590e-002 	             	
        12.928	             	  4.480e-004 	
        12.960	  8.590e-002 	             	
        13.024	  8.590e-002 	  4.520e-004 	
        13.089	  8.590e-002 	  4.550e-004 	
        13.152	  8.590e-002 	  4.580e-004 	
        13.216	  8.590e-002 	  4.620e-004 	
        13.281	  8.590e-002 	  4.650e-004 	
        13.344	             	  4.680e-004 	
        13.376	  8.590e-002 	             	
        13.408	             	  4.710e-004 	
        13.440	  8.590e-002 	             	
        13.473	             	  4.740e-004 	
        13.504	  8.590e-002 	             	
        13.536	             	  4.770e-004 	
        13.568	  8.590e-002 	             	
        13.601	             	  4.800e-004 	
        13.632	  8.590e-002 	             	
        13.664	             	  4.830e-004 	
        13.696	  8.590e-002 	             	
        13.729	             	  4.860e-004 	
        13.761	  8.590e-002 	             	
        13.793	             	  4.890e-004 	
        13.824	  8.590e-002 	             	
        13.888	  8.590e-002 	  4.920e-004 	
        13.952	  8.590e-002 	  4.960e-004 	
        14.016	  8.590e-002 	  4.990e-004 	
        14.080	  8.590e-002 	  5.020e-004 	
        14.144	             	  5.050e-004 	
        14.177	  8.590e-002 	             	
        14.208	             	  5.080e-004 	
        14.240	  8.590e-002 	             	
        14.273	             	  5.120e-004 	
        14.304	  8.590e-002 	             	
        14.337	             	  5.150e-004 	
        14.368	  8.590e-002 	             	
        14.400	             	  5.190e-004 	
        14.432	  8.590e-002 	             	
        14.464	             	  5.220e-004 	
        14.496	  8.590e-002 	             	
        14.529	             	  5.260e-004 	
        14.561	  8.590e-002 	             	
        14.592	             	  5.290e-004 	
        14.624	  8.590e-002 	             	
        14.688	  8.590e-002 	  5.330e-004 	
        14.752	  8.590e-002 	  5.360e-004 	
        14.816	  8.590e-002 	  5.390e-004 	
        14.880	  8.590e-002 	  5.410e-004 	
        14.944	             	  5.430e-004 	
        14.976	  8.590e-002 	             	
        15.008	             	  5.460e-004 	
        15.041	  8.590e-002 	             	
        15.072	             	  5.480e-004 	
        15.104	  8.590e-002 	             	
        15.136	             	  5.500e-004 	
        15.168	  8.590e-002 	             	
        15.200	             	  5.530e-004 	
        15.232	  8.590e-002 	             	
        15.265	             	  5.560e-004 	
        15.296	  8.590e-002 	             	
        15.329	             	  5.590e-004 	
        15.360	  8.580e-002 	             	
        15.392	             	  5.620e-004 	
        15.425	  8.580e-002 	             	
        15.489	  8.580e-002 	  5.650e-004 	
        15.552	  8.580e-002 	  5.690e-004 	
        15.616	  8.580e-002 	  5.730e-004 	
        15.681	  8.580e-002 	  5.760e-004 	
        15.745	             	  5.800e-004 	
        15.776	  8.580e-002 	             	
        15.808	             	  5.850e-004 	
        15.840	  8.570e-002 	             	
        15.873	             	  5.890e-004 	
        15.904	  8.570e-002 	             	
        15.936	             	  5.930e-004 	
        15.968	  8.570e-002 	             	
        16.000	             	  5.980e-004 	
        16.032	  8.570e-002 	             	
        16.064	             	  6.020e-004 	
        16.097	  8.570e-002 	             	
        16.128	             	  6.060e-004 	
        16.160	  8.570e-002 	             	
        16.192	             	  6.110e-004 	
        16.225	  8.570e-002 	             	
        16.288	  8.570e-002 	  6.150e-004 	
        16.352	  8.570e-002 	  6.190e-004 	
        16.416	             	  6.230e-004 	
        16.417	  8.580e-002 	             	
        16.481	  8.580e-002 	  6.280e-004 	
        16.544	             	  6.320e-004 	
        16.577	  8.580e-002 	             	
        16.608	             	  6.360e-004 	
        16.641	  8.580e-002 	             	
        16.672	             	  6.400e-004 	
        16.704	  8.580e-002 	             	
        16.736	             	  6.450e-004 	
        16.768	  8.580e-002 	             	
        16.800	             	  6.490e-004 	
        16.833	  8.580e-002 	             	
        16.864	             	  6.530e-004 	
        16.897	  8.580e-002 	             	
        16.928	             	  6.570e-004 	
        16.960	  8.580e-002 	             	
        16.993	             	  6.600e-004 	
        17.024	  8.580e-002 	             	
        17.088	  8.580e-002 	  6.640e-004 	
        17.152	  8.580e-002 	  6.680e-004 	
        17.216	  8.580e-002 	  6.720e-004 	
        17.281	  8.580e-002 	  6.760e-004 	
        17.344	             	  6.800e-004 	
        17.377	  8.580e-002 	             	
        17.408	             	  6.840e-004 	
        17.440	  8.580e-002 	             	
        17.472	             	  6.870e-004 	
        17.504	  8.580e-002 	             	
        17.536	             	  6.910e-004 	
        17.568	  8.580e-002 	             	
        17.600	             	  6.950e-004 	
        17.632	  8.580e-002 	             	
        17.664	             	  6.980e-004 	
        17.696	  8.580e-002 	             	
        17.729	             	  7.020e-004 	
        17.761	  8.580e-002 	             	
        17.793	             	  7.050e-004 	
        17.825	  8.580e-002 	             	
        17.889	  8.580e-002 	  7.090e-004 	
        17.953	  8.580e-002 	  7.120e-004 	
        18.016	  8.580e-002 	  7.160e-004 	
        18.081	  8.580e-002 	  7.200e-004 	
        18.144	             	  7.240e-004 	
        18.177	  8.580e-002 	             	
        18.209	             	  7.270e-004 	
        18.240	  8.580e-002 	             	
        18.272	             	  7.310e-004 	
        18.304	  8.580e-002 	             	
        18.337	             	  7.350e-004 	
        18.369	  8.580e-002 	             	
        18.400	             	  7.390e-004 	
        18.432	  8.580e-002 	             	
        18.464	             	  7.430e-004 	
        18.496	  8.570e-002 	             	
        18.528	             	  7.470e-004 	
        18.561	  8.570e-002 	             	
        18.592	             	  7.510e-004 	
        18.624	  8.570e-002 	             	
        18.688	  8.570e-002 	  7.560e-004 	
        18.752	  8.570e-002 	  7.600e-004 	
        18.816	  8.570e-002 	  7.650e-004 	
        18.880	  8.570e-002 	  7.700e-004 	
        18.945	             	  7.750e-004 	
        18.976	  8.570e-002 	             	
        19.008	             	  7.800e-004 	
        19.040	  8.570e-002 	             	
        19.073	             	  7.860e-004 	
        19.104	  8.570e-002 	             	
        19.136	             	  7.910e-004 	
        19.168	  8.570e-002 	             	
        19.200	             	  7.970e-004 	
        19.232	  8.570e-002 	             	
        19.264	             	  8.030e-004 	
        19.297	  8.570e-002 	             	
        19.328	             	  8.090e-004 	
        19.360	  8.570e-002 	             	
        19.393	             	  8.150e-004 	
        19.424	  8.570e-002 	             	
        19.488	  8.570e-002 	  8.210e-004 	
        19.552	  8.570e-002 	  8.280e-004 	
        19.616	  8.570e-002 	  8.340e-004 	
        19.680	  8.570e-002 	  8.410e-004 	
        19.744	             	  8.480e-004 	
        19.777	  8.580e-002 	             	
        19.808	             	  8.550e-004 	
        19.841	  8.580e-002 	             	
        19.872	             	  8.620e-004 	
        19.905	  8.580e-002 	             	
        19.936	             	  8.690e-004 	
        19.968	  8.580e-002 	             	
        20.000	             	  8.760e-004 	
        20.032	  8.580e-002 	             	
        20.064	             	  8.830e-004 	
        20.096	  8.580e-002 	             	
        20.128	             	  8.900e-004 	
        20.161	  8.580e-002 	             	
        20.193	             	  8.970e-004 	
        20.225	  8.580e-002 	             	
        20.288	  8.580e-002 	  9.030e-004 	
        20.353	  8.580e-002 	  9.100e-004 	
        20.416	  8.580e-002 	  9.160e-004 	
        20.480	  8.580e-002 	  9.220e-004 	
        20.544	             	  9.280e-004 	
        20.576	  8.580e-002 	             	
        20.609	             	  9.340e-004 	
        20.640	  8.580e-002 	             	
        20.672	             	  9.390e-004 	
        20.704	  8.580e-002 	             	
        20.736	             	  9.440e-004 	
        20.768	  8.580e-002 	             	
        20.800	             	  9.480e-004 	
        20.833	  8.580e-002 	             	
        20.864	             	  9.520e-004 	
        20.896	  8.580e-002 	             	
        20.928	             	  9.560e-004 	
        20.960	  8.580e-002 	             	
        20.992	             	  9.580e-004 	
        21.024	  8.580e-002 	             	
        21.088	  8.580e-002 	  9.610e-004 	
        21.153	  8.580e-002 	  9.620e-004 	
        21.216	  8.570e-002 	  9.630e-004 	
        21.280	  8.570e-002 	  9.640e-004 	
        21.344	             	  9.640e-004 	
        21.376	  8.570e-002 	             	
        21.408	             	  9.640e-004 	
        21.441	  8.570e-002 	             	
        21.472	             	  9.620e-004 	
        21.504	  8.570e-002 	             	
        21.536	             	  9.600e-004 	
        21.568	  8.570e-002 	             	
        21.600	             	  9.580e-004 	
        21.632	  8.570e-002 	             	
        21.664	             	  9.550e-004 	
        21.696	  8.570e-002 	             	
        21.728	             	  9.510e-004 	
        21.760	  8.570e-002 	             	
        21.792	             	  9.460e-004 	
        21.824	  8.570e-002 	             	
        21.888	  8.570e-002 	  9.420e-004 	
        21.953	  8.570e-002 	  9.370e-004 	
        22.016	  8.570e-002 	  9.310e-004 	
        22.080	  8.570e-002 	  9.250e-004 	
        22.145	             	  9.190e-004 	
        22.176	  8.570e-002 	             	
        22.208	             	  9.120e-004 	
        22.240	  8.580e-002 	             	
        22.272	             	  9.050e-004 	
        22.304	  8.580e-002 	             	
        22.336	             	  8.980e-004 	
        22.368	  8.580e-002 	             	
        22.400	             	  8.910e-004 	
        22.433	  8.580e-002 	             	
        22.464	             	  8.830e-004 	
        22.496	  8.580e-002 	             	
        22.528	             	  8.760e-004 	
        22.561	  8.580e-002 	             	
        22.592	             	  8.690e-004 	
        22.624	  8.580e-002 	             	
        22.689	  8.580e-002 	  8.610e-004 	
        22.752	  8.580e-002 	  8.540e-004 	
        22.816	  8.580e-002 	  8.470e-004 	
        22.881	  8.580e-002 	  8.400e-004 	
        22.944	             	  8.340e-004 	
        22.977	  8.580e-002 	             	
        23.009	             	  8.280e-004 	
        23.040	  8.580e-002 	             	
        23.072	             	  8.220e-004 	
        23.104	  8.580e-002 	             	
        23.136	             	  8.160e-004 	
        23.168	  8.580e-002 	             	
        23.200	             	  8.110e-004 	
        23.232	  8.580e-002 	             	
        23.265	             	  8.060e-004 	
        23.296	  8.580e-002 	             	
        23.329	             	  8.010e-004 	
        23.360	  8.580e-002 	             	
        23.392	             	  7.960e-004 	
        23.424	  8.580e-002 	             	
        23.488	  8.580e-002 	  7.920e-004 	
        23.552	  8.580e-002 	  7.880e-004 	
        23.616	  8.580e-002 	  7.850e-004 	
        23.680	  8.580e-002 	  7.810e-004 	
        23.745	             	  7.770e-004 	
        23.777	  8.580e-002 	             	
        23.809	             	  7.740e-004 	
        23.841	  8.580e-002 	             	
        23.872	             	  7.700e-004 	
        23.904	  8.580e-002 	             	
        23.936	             	  7.670e-004 	
        23.968	  8.570e-002 	             	
        24.000	             	  7.630e-004 	
        24.032	  8.570e-002 	             	
        24.065	             	  7.600e-004 	
        24.096	  8.570e-002 	             	
        24.128	             	  7.560e-004 	
        24.161	  8.570e-002 	             	
        24.192	             	  7.520e-004 	
        24.225	  8.570e-002 	             	
        24.288	  8.570e-002 	  7.480e-004 	
        24.352	  8.570e-002 	  7.440e-004 	
        24.416	  8.570e-002 	  7.400e-004 	
        24.480	  8.570e-002 	  7.360e-004 	
        24.544	  8.570e-002 	  7.310e-004 	
        24.609	             	  7.260e-004 	
        24.640	  8.570e-002 	             	
        24.673	             	  7.210e-004 	
        24.705	  8.570e-002 	             	
        24.736	             	  7.160e-004 	
        24.769	  8.570e-002 	             	
        24.801	             	  7.110e-004 	
        24.832	  8.570e-002 	             	
        24.864	             	  7.050e-004 	
        24.896	  8.570e-002 	             	
        24.928	             	  7.000e-004 	
        24.961	  8.570e-002 	             	
        24.992	             	  6.940e-004 	
        25.024	  8.570e-002 	             	
        25.089	  8.570e-002 	  6.890e-004 	
        25.152	  8.570e-002 	  6.830e-004 	
        25.216	  8.570e-002 	  6.770e-004 	
        25.280	  8.570e-002 	  6.720e-004 	
        25.344	  8.570e-002 	  6.660e-004 	
        25.409	             	  6.600e-004 	
        25.440	  8.570e-002 	             	
        25.472	             	  6.540e-004 	
        25.504	  8.570e-002 	             	
        25.536	             	  6.480e-004 	
        25.568	  8.570e-002 	             	
        25.601	             	  6.420e-004 	
        25.632	  8.570e-002 	             	
        25.664	             	  6.360e-004 	
        25.696	  8.570e-002 	             	
        25.728	             	  6.300e-004 	
        25.761	  8.570e-002 	             	
        25.792	             	  6.230e-004 	
        25.824	  8.570e-002 	             	
        25.888	             	  6.170e-004 	
        25.889	  8.560e-002 	             	
        25.952	  8.560e-002 	  6.100e-004 	
        26.016	  8.560e-002 	  6.040e-004 	
        26.080	  8.560e-002 	  5.970e-004 	
        26.144	  8.570e-002 	  5.910e-004 	
        26.208	             	  5.850e-004 	
        26.240	  8.570e-002 	             	
        26.273	             	  5.790e-004 	
        26.304	  8.570e-002 	             	
        26.336	             	  5.730e-004 	
        26.368	  8.570e-002 	             	
        26.401	             	  5.670e-004 	
        26.432	  8.570e-002 	             	
        26.464	             	  5.620e-004 	
        26.496	  8.580e-002 	             	
        26.528	             	  5.560e-004 	
        26.560	  8.580e-002 	             	
        26.592	             	  5.510e-004 	
        26.624	  8.580e-002 	             	
        26.689	  8.580e-002 	  5.450e-004 	
        26.752	  8.580e-002 	  5.400e-004 	
        26.817	  8.570e-002 	  5.350e-004 	
        26.881	  8.570e-002 	  5.290e-004 	
        26.945	  8.580e-002 	  5.240e-004 	
        27.009	             	  5.190e-004 	
        27.041	  8.580e-002 	             	
        27.072	             	  5.140e-004 	
        27.104	  8.580e-002 	             	
        27.137	             	  5.090e-004 	
        27.169	  8.580e-002 	             	
        27.200	             	  5.040e-004 	
        27.233	  8.580e-002 	             	
        27.264	             	  4.990e-004 	
        27.296	  8.580e-002 	             	
        27.328	             	  4.940e-004 	
        27.360	  8.580e-002 	             	
        27.392	             	  4.890e-004 	
        27.425	  8.580e-002 	             	
        27.456	             	  4.840e-004 	
        27.488	  8.580e-002 	             	
        27.552	  8.580e-002 	  4.790e-004 	
        27.616	  8.580e-002 	  4.740e-004 	
        27.680	  8.580e-002 	  4.690e-004 	
        27.744	  8.580e-002 	  4.640e-004 	
        27.808	             	  4.590e-004 	
        27.840	  8.580e-002 	             	
        27.872	             	  4.550e-004 	
        27.904	  8.580e-002 	             	
        27.936	             	  4.500e-004 	
        27.968	  8.580e-002 	             	
        28.000	             	  4.460e-004 	
        28.033	  8.580e-002 	             	
        28.064	             	  4.410e-004 	
        28.096	  8.580e-002 	             	
        28.128	             	  4.370e-004 	
        28.161	  8.570e-002 	             	
        28.192	             	  4.320e-004 	
        28.225	  8.570e-002 	             	
        28.256	             	  4.280e-004 	
        28.288	  8.570e-002 	             	
        28.352	  8.570e-002 	  4.240e-004 	
        28.416	  8.570e-002 	  4.200e-004 	
        28.480	             	  4.170e-004 	
        28.481	  8.570e-002 	             	
        28.544	  8.570e-002 	  4.130e-004 	
        28.608	             	  4.090e-004 	
        28.641	  8.570e-002 	             	
        28.673	             	  4.060e-004 	
        28.704	  8.570e-002 	             	
        28.736	             	  4.020e-004 	
        28.768	  8.570e-002 	             	
        28.800	             	  3.980e-004 	
        28.832	  8.570e-002 	             	
        28.864	             	  3.950e-004 	
        28.896	  8.570e-002 	             	
        28.928	             	  3.910e-004 	
        28.960	  8.570e-002 	             	
        28.993	             	  3.880e-004 	
        29.025	  8.570e-002 	             	
        29.056	             	  3.840e-004 	
        29.089	  8.570e-002 	             	
        29.153	  8.580e-002 	  3.810e-004 	
        29.216	  8.580e-002 	  3.780e-004 	
        29.280	  8.580e-002 	  3.750e-004 	
        29.345	  8.580e-002 	  3.710e-004 	
        29.408	             	  3.680e-004 	
        29.441	  8.580e-002 	             	
        29.473	             	  3.650e-004 	
        29.504	  8.580e-002 	             	
        29.536	             	  3.620e-004 	
        29.568	  8.580e-002 	             	
        29.600	             	  3.590e-004 	
        29.632	  8.580e-002 	             	
        29.665	             	  3.560e-004 	
        29.696	  8.580e-002 	             	
        29.728	             	  3.530e-004 	
        29.760	  8.580e-002 	             	
        29.792	             	  3.500e-004 	
        29.824	  8.580e-002 	             	
        29.856	             	  3.470e-004 	
        29.888	  8.580e-002 	             	
        29.952	  8.580e-002 	  3.440e-004 	
        30.017	  8.580e-002 	  3.410e-004 	
        30.081	  8.570e-002 	  3.380e-004 	
        30.144	  8.570e-002 	  3.350e-004 	
        30.208	             	  3.320e-004 	
        30.240	  8.570e-002 	             	
        30.272	             	  3.290e-004 	
        30.304	  8.570e-002 	             	
        30.336	             	  3.260e-004 	
        30.368	  8.560e-002 	             	
        30.400	             	  3.230e-004 	
        30.432	  8.560e-002 	             	
        30.465	             	  3.200e-004 	
        30.497	  8.560e-002 	             	
        30.528	             	  3.170e-004 	
        30.560	  8.560e-002 	             	
        30.592	             	  3.140e-004 	
        30.624	  8.560e-002 	             	
        30.656	             	  3.120e-004 	
        30.689	  8.560e-002 	             	
        30.752	  8.560e-002 	  3.100e-004 	
        30.816	  8.560e-002 	  3.070e-004 	
        30.881	  8.560e-002 	  3.050e-004 	
        30.944	  8.570e-002 	  3.030e-004 	
        31.009	             	  3.010e-004 	
        31.040	  8.570e-002 	             	
        31.072	             	  2.990e-004 	
        31.105	  8.570e-002 	             	
        31.136	             	  2.970e-004 	
        31.168	  8.570e-002 	             	
        31.201	             	  2.950e-004 	
        31.232	  8.570e-002 	             	
        31.264	             	  2.940e-004 	
        31.296	  8.570e-002 	             	
        31.328	             	  2.920e-004 	
        31.360	  8.570e-002 	             	
        31.393	             	  2.900e-004 	
        31.425	  8.570e-002 	             	
        31.456	             	  2.890e-004 	
        31.488	  8.570e-002 	             	
        31.553	  8.570e-002 	  2.870e-004 	
        31.616	  8.570e-002 	  2.850e-004 	
        31.680	  8.570e-002 	  2.830e-004 	
        31.744	  8.570e-002 	  2.810e-004 	
        31.808	             	  2.790e-004 	
        31.840	  8.570e-002 	             	
        31.872	             	  2.770e-004 	
        31.904	  8.570e-002 	             	
        31.936	             	  2.750e-004 	
        31.969	  8.570e-002 	             	
        32.000	             	  2.740e-004 	
        32.032	  8.570e-002 	             	
        32.064	             	  2.720e-004 	
        32.096	  8.570e-002 	             	
        32.128	             	  2.700e-004 	
        32.160	  8.570e-002 	             	
        32.193	             	  2.690e-004 	
        32.225	  8.570e-002 	             	
        32.256	             	  2.670e-004 	
        32.288	  8.570e-002 	             	
        32.352	  8.570e-002 	  2.650e-004 	
        32.416	  8.570e-002 	  2.640e-004 	
        32.480	  8.580e-002 	  2.620e-004 	
        32.544	  8.580e-002 	  2.600e-004 	
        32.608	             	  2.590e-004 	
        32.641	  8.570e-002 	             	
        32.672	             	  2.570e-004 	
        32.704	  8.570e-002 	             	
        32.737	             	  2.560e-004 	
        32.768	  8.570e-002 	             	
        32.800	             	  2.540e-004 	
        32.832	  8.570e-002 	             	
        32.865	             	  2.530e-004 	
        32.896	  8.570e-002 	             	
        32.928	             	  2.510e-004 	
        32.960	  8.570e-002 	             	
        32.992	             	  2.500e-004 	
        33.025	  8.570e-002 	             	
        33.056	             	  2.480e-004 	
        33.088	  8.570e-002 	             	
        33.153	  8.570e-002 	  2.460e-004 	
        33.216	  8.570e-002 	  2.450e-004 	
        33.280	  8.570e-002 	  2.430e-004 	
        33.344	  8.570e-002 	  2.410e-004 	
        33.409	             	  2.400e-004 	
        33.441	  8.570e-002 	             	
        33.472	             	  2.380e-004 	
        33.504	  8.570e-002 	             	
        33.536	             	  2.370e-004 	
        33.568	  8.570e-002 	             	
        33.601	             	  2.350e-004 	
        33.632	  8.570e-002 	             	
        33.664	             	  2.340e-004 	
        33.696	  8.570e-002 	             	
        33.728	             	  2.320e-004 	
        33.760	  8.570e-002 	             	
        33.792	             	  2.300e-004 	
        33.825	  8.570e-002 	             	
        33.857	             	  2.290e-004 	
        33.888	  8.570e-002 	             	
        33.952	  8.570e-002 	  2.280e-004 	
        34.016	  8.570e-002 	  2.260e-004 	
        34.080	  8.570e-002 	  2.250e-004 	
        34.144	  8.570e-002 	  2.240e-004 	
        34.208	             	  2.220e-004 	
        34.240	  8.570e-002 	             	
        34.304	  8.580e-002 	             	
        34.368	  8.580e-002 	             	
        34.432	  8.580e-002 	             	
        34.497	  8.580e-002 	             	
        34.560	  8.580e-002 	             	
        34.624	  8.580e-002 	             	
        34.689	  8.580e-002 	             	
        34.752	  8.580e-002 	             	
        34.816	  8.580e-002 	             	
        34.880	  8.580e-002 	             	
        34.944	  8.590e-002 	             	
        35.040	  8.590e-002 	             	
        35.104	  8.590e-002 	             	
        35.169	  8.590e-002 	             	
        35.232	  8.590e-002 	             	
        35.296	  8.590e-002 	             	
        35.360	  8.590e-002 	             	
        35.425	  8.590e-002 	             	
        35.488	  8.590e-002 	             	
        35.552	             	  1.695e-004 	
        35.553	  8.590e-002 	             	
        35.616	  8.580e-002 	  1.630e-004 	
        35.681	  8.580e-002 	  1.565e-004 	
        35.744	  8.580e-002 	  1.505e-004 	
        35.808	             	  1.452e-004 	
        35.841	  8.580e-002 	             	
        35.872	             	  1.410e-004 	
        35.904	  8.580e-002 	             	
        35.937	             	  1.379e-004 	
        35.969	  8.580e-002 	             	
        36.000	             	  1.359e-004 	
        36.033	  8.580e-002 	             	
        36.064	             	  1.351e-004 	
        36.096	  8.580e-002 	             	
        36.128	             	  1.352e-004 	
        36.160	  8.580e-002 	             	
        36.192	             	  1.362e-004 	
        36.224	  8.590e-002 	             	
        36.257	             	  1.378e-004 	
        36.288	  8.590e-002 	             	
        36.352	  8.590e-002 	  1.398e-004 	
        36.417	  8.590e-002 	  1.420e-004 	
        36.480	  8.590e-002 	  1.442e-004 	
        36.544	  8.580e-002 	  1.464e-004 	
        36.609	             	  1.485e-004 	
        36.640	  8.580e-002 	             	
        36.672	             	  1.503e-004 	
        36.705	  8.580e-002 	             	
        36.737	             	  1.521e-004 	
        36.769	  8.580e-002 	             	
        36.800	             	  1.536e-004 	
        36.832	  8.580e-002 	             	
        36.864	             	  1.548e-004 	
        36.896	  8.580e-002 	             	
        36.928	             	  1.559e-004 	
        36.960	  8.580e-002 	             	
        36.992	             	  1.568e-004 	
        37.024	  8.570e-002 	             	
        37.056	             	  1.575e-004 	
        37.088	  8.570e-002 	             	
        37.152	  8.570e-002 	  1.581e-004 	
        37.216	  8.570e-002 	  1.585e-004 	
        37.280	  8.570e-002 	  1.588e-004 	
        37.345	  8.570e-002 	  1.591e-004 	
        37.408	  8.570e-002 	  1.592e-004 	
        37.472	             	  1.593e-004 	
        37.505	  8.570e-002 	             	
        37.536	             	  1.592e-004 	
        37.569	  8.570e-002 	             	
        37.600	             	  1.590e-004 	
        37.632	  8.580e-002 	             	
        37.664	             	  1.589e-004 	
        37.696	  8.580e-002 	             	
        37.728	             	  1.586e-004 	
        37.760	  8.580e-002 	             	
        37.792	             	  1.583e-004 	
        37.824	  8.580e-002 	             	
        37.857	             	  1.579e-004 	
        37.889	  8.570e-002 	             	
        37.953	  8.570e-002 	  1.574e-004 	
        38.016	  8.580e-002 	  1.569e-004 	
        38.080	  8.580e-002 	  1.565e-004 	
        38.144	  8.580e-002 	  1.561e-004 	
        38.208	  8.580e-002 	  1.557e-004 	
        38.272	             	  1.554e-004 	
        38.304	  8.580e-002 	             	
        38.336	             	  1.551e-004 	
        38.368	  8.580e-002 	             	
        38.400	             	  1.548e-004 	
        38.432	  8.580e-002 	             	
        38.464	             	  1.545e-004 	
        38.496	  8.580e-002 	             	
        38.528	             	  1.542e-004 	
        38.560	  8.580e-002 	             	
        38.592	             	  1.539e-004 	
        38.624	  8.580e-002 	             	
        38.656	             	  1.536e-004 	
        38.688	  8.580e-002 	             	
        38.752	  8.580e-002 	  1.532e-004 	
        38.816	  8.580e-002 	  1.527e-004 	
        38.880	  8.580e-002 	  1.523e-004 	
        38.944	             	  1.518e-004 	
        38.945	  8.580e-002 	             	
        39.008	  8.580e-002 	  1.512e-004 	
        39.072	             	  1.506e-004 	
        39.104	  8.580e-002 	             	
        39.136	             	  1.499e-004 	
        39.168	  8.580e-002 	             	
        39.200	             	  1.490e-004 	
        39.232	  8.580e-002 	             	
        39.264	             	  1.480e-004 	
        39.297	  8.580e-002 	             	
        39.329	             	  1.469e-004 	
        39.360	  8.580e-002 	             	
        39.392	             	  1.457e-004 	
        39.424	  8.580e-002 	             	
        39.456	             	  1.444e-004 	
        39.489	  8.580e-002 	             	
        39.552	  8.580e-002 	  1.432e-004 	
        39.616	  8.580e-002 	  1.419e-004 	
        39.680	  8.580e-002 	  1.408e-004 	
        39.744	  8.580e-002 	  1.398e-004 	
        39.808	  8.580e-002 	  1.388e-004 	
        39.872	             	  1.380e-004 	
        39.904	  8.580e-002 	             	
        39.936	             	  1.372e-004 	
        39.968	  8.580e-002 	             	
        40.000	             	  1.366e-004 	
        40.032	  8.580e-002 	             	
        40.064	             	  1.361e-004 	
        40.096	  8.580e-002 	             	
        40.128	             	  1.356e-004 	
        40.160	  8.580e-002 	             	
        40.192	             	  1.353e-004 	
        40.224	  8.580e-002 	             	
        40.256	             	  1.350e-004 	
        40.288	  8.580e-002 	             	
        40.320	             	  1.348e-004 	
        40.352	  8.580e-002 	             	
        40.416	  8.580e-002 	  1.347e-004 	
        40.480	  8.580e-002 	  1.346e-004 	
        40.544	  8.570e-002 	  1.346e-004 	
        40.608	  8.570e-002 	  1.345e-004 	
        40.672	             	  1.344e-004 	
        40.704	  8.570e-002 	             	
        40.736	             	  1.343e-004 	
        40.768	  8.570e-002 	             	
        40.800	             	  1.342e-004 	
        40.832	  8.570e-002 	             	
        40.864	             	  1.340e-004 	
        40.896	  8.570e-002 	             	
        40.928	             	  1.338e-004 	
        40.960	  8.580e-002 	             	
        40.992	             	  1.336e-004 	
        41.024	  8.580e-002 	             	
        41.056	             	  1.333e-004 	
        41.088	  8.580e-002 	             	
        41.121	             	  1.330e-004 	
        41.153	  8.580e-002 	             	
        41.216	  8.580e-002 	  1.326e-004 	
        41.281	  8.570e-002 	  1.322e-004 	
        41.344	  8.570e-002 	  1.317e-004 	
        41.408	             	  1.311e-004 	
        41.409	  8.570e-002 	             	
        41.472	             	  1.305e-004 	
        41.504	  8.570e-002 	             	
        41.537	             	  1.299e-004 	
        41.568	  8.570e-002 	             	
        41.600	             	  1.294e-004 	
        41.632	  8.570e-002 	             	
        41.664	             	  1.288e-004 	
        41.696	  8.570e-002 	             	
        41.728	             	  1.283e-004 	
        41.761	  8.570e-002 	             	
        41.792	             	  1.277e-004 	
        41.824	  8.570e-002 	             	
        41.857	             	  1.271e-004 	
        41.889	  8.570e-002 	             	
        41.921	             	  1.266e-004 	
        41.953	  8.570e-002 	             	
